# Spectrum from Mathe et al. 2019
2221
271
 570.00 5.6082e-08
 570.25 4.1419e-08
 570.50 2.6960e-08
 570.75 1.1831e-08
 571.00 1.5129e-08
 571.25 2.8352e-08
 571.50 2.0943e-08
 571.75 1.9006e-08
 572.00 2.3389e-08
 572.25 -6.3172e-09
 572.50 -3.6062e-08
 572.75 -2.3807e-08
 573.00 -1.7693e-08
 573.25 -6.6671e-08
 573.50 -1.7342e-07
 573.75 -8.2210e-08
 574.00 1.3260e-07
 574.25 1.2732e-07
 574.50 8.7432e-08
 574.75 7.4602e-08
 575.00 6.5989e-08
 575.25 7.9661e-08
 575.50 6.3167e-08
 575.75 5.1569e-08
 576.00 5.4473e-08
 576.25 4.6543e-08
 576.50 2.4664e-08
 576.75 1.5719e-08
 577.00 1.6380e-08
 577.25 2.8128e-08
 577.50 3.2452e-08
 577.75 2.6956e-08
 578.00 1.7281e-08
 578.25 1.6578e-08
 578.50 1.2283e-08
 578.75 1.0808e-08
 579.00 1.3220e-08
 579.25 1.0472e-08
 579.50 1.0434e-08
 579.75 1.3325e-08
 580.00 1.1387e-08
 580.25 1.5637e-08
 580.50 2.8086e-08
 580.75 2.1179e-08
 581.00 9.1452e-09
 581.25 8.1139e-09
 581.50 1.0902e-08
 581.75 4.6170e-10
 582.00 -5.9237e-10
 582.25 6.8545e-09
 582.50 1.6943e-08
 582.75 1.4770e-08
 583.00 4.5171e-09
 583.25 1.0466e-08
 583.50 2.5559e-08
 583.75 2.2402e-08
 584.00 5.6544e-09
 584.25 5.0495e-09
 584.50 4.8115e-09
 584.75 -1.0255e-10
 585.00 -5.7734e-09
 585.25 -2.1913e-09
 585.50 4.7775e-09
 585.75 8.3544e-09
 586.00 8.6048e-09
 586.25 1.1576e-08
 586.50 1.3557e-08
 586.75 8.5606e-09
 587.00 3.7873e-09
 587.25 3.2021e-09
 587.50 3.4171e-09
 587.75 3.5021e-09
 588.00 4.4164e-09
 588.25 3.1555e-09
 588.50 9.4182e-09
 588.75 1.5367e-08
 589.00 1.2618e-08
 589.25 8.3674e-09
 589.50 1.0440e-08
 589.75 7.0791e-09
 590.00 -7.6318e-10
 590.25 4.4275e-09
 590.50 1.2865e-08
 590.75 1.0408e-08
 591.00 6.6315e-10
 591.25 -7.5900e-10
 591.50 4.9112e-09
 591.75 7.4623e-09
 592.00 8.4510e-09
 592.25 7.5264e-09
 592.50 7.0116e-09
 592.75 6.9180e-09
 593.00 3.6591e-09
 593.25 5.4648e-09
 593.50 9.1690e-09
 593.75 8.3357e-09
 594.00 9.8508e-09
 594.25 8.8848e-09
 594.50 6.9854e-09
 594.75 9.8788e-09
 595.00 1.2381e-08
 595.25 8.3691e-09
 595.50 8.6109e-09
 595.75 1.1608e-08
 596.00 1.0286e-08
 596.25 1.0096e-08
 596.50 6.7816e-09
 596.75 6.3499e-09
 597.00 3.5548e-09
 597.25 -5.1020e-10
 597.50 4.8458e-09
 597.75 1.0389e-08
 598.00 1.0295e-08
 598.25 9.5433e-09
 598.50 4.4904e-09
 598.75 5.6562e-09
 599.00 1.5313e-08
 599.25 1.7011e-08
 599.50 1.4332e-08
 599.75 1.3260e-08
 600.00 1.3035e-08
 600.25 1.1522e-08
 600.50 9.2454e-09
 600.75 8.9802e-09
 601.00 1.0755e-08
 601.25 1.0691e-08
 601.50 1.2860e-08
 601.75 1.4959e-08
 602.00 9.1568e-09
 602.25 3.4728e-09
 602.50 4.0258e-09
 602.75 2.5313e-09
 603.00 -1.1184e-10
 603.25 3.5724e-09
 603.50 9.7537e-09
 603.75 1.0830e-08
 604.00 8.5792e-09
 604.25 8.4139e-09
 604.50 1.1420e-08
 604.75 1.0567e-08
 605.00 7.3907e-09
 605.25 6.3570e-09
 605.50 5.2124e-09
 605.75 5.6541e-09
 606.00 5.2177e-09
 606.25 1.4289e-09
 606.50 7.2552e-10
 606.75 1.0545e-08
 607.00 1.2606e-08
 607.25 4.7490e-09
 607.50 3.0045e-09
 607.75 5.9229e-09
 608.00 9.0940e-09
 608.25 1.2824e-08
 608.50 1.5054e-08
 608.75 1.2572e-08
 609.00 9.6371e-09
 609.25 1.0990e-08
 609.50 1.2807e-08
 609.75 1.1145e-08
 610.00 7.0770e-09
 610.25 3.1608e-09
 610.50 6.8677e-09
 610.75 1.4744e-08
 611.00 1.2876e-08
 611.25 5.9255e-09
 611.50 8.5556e-09
 611.75 1.2703e-08
 612.00 1.0729e-08
 612.25 9.6174e-09
 612.50 1.0440e-08
 612.75 1.0201e-08
 613.00 7.9264e-09
 613.25 7.6866e-09
 613.50 1.1202e-08
 613.75 1.0837e-08
 614.00 1.0840e-08
 614.25 1.2219e-08
 614.50 9.1070e-09
 614.75 6.1759e-09
 615.00 7.5479e-09
 615.25 8.4201e-09
 615.50 9.6929e-09
 615.75 1.2197e-08
 616.00 1.4135e-08
 616.25 1.3338e-08
 616.50 1.0877e-08
 616.75 1.1541e-08
 617.00 1.1728e-08
 617.25 1.2196e-08
 617.50 1.2075e-08
 617.75 9.9127e-09
 618.00 6.7403e-09
 618.25 1.2495e-08
 618.50 1.3521e-08
 618.75 1.0254e-08
 619.00 1.4120e-08
 619.25 2.0553e-08
 619.50 1.7147e-08
 619.75 1.0401e-08
 620.00 1.3576e-08
 620.25 1.4144e-08
 620.50 1.4055e-08
 620.75 1.2645e-08
 621.00 1.3768e-08
 621.25 1.6485e-08
 621.50 2.6993e-08
 621.75 2.5287e-08
 622.00 1.1172e-08
 622.25 8.9324e-09
 622.50 1.1254e-08
 622.75 1.4524e-08
 623.00 1.4865e-08
 623.25 1.0826e-08
 623.50 6.7328e-09
 623.75 1.0798e-08
 624.00 1.4640e-08
 624.25 1.0800e-08
 624.50 1.0004e-08
 624.75 1.2798e-08
 625.00 1.6065e-08
 625.25 1.6621e-08
 625.50 1.4742e-08
 625.75 1.6507e-08
 626.00 1.8316e-08
 626.25 1.8379e-08
 626.50 1.4628e-08
 626.75 1.8193e-08
 627.00 1.7673e-08
 627.25 1.1815e-08
 627.50 1.3690e-08
 627.75 5.5882e-08
 628.00 9.3550e-08
 628.25 6.2187e-08
 628.50 3.3322e-08
 628.75 2.5346e-08
 629.00 2.0367e-08
 629.25 1.8106e-08
 629.50 2.1448e-08
 629.75 2.3523e-08
 630.00 2.2447e-08
 630.25 2.1507e-08
 630.50 1.9603e-08
 630.75 2.3731e-08
 631.00 2.4149e-08
 631.25 2.7390e-08
 631.50 2.2866e-08
 631.75 2.1090e-08
 632.00 2.4451e-08
 632.25 2.4109e-08
 632.50 3.1739e-08
 632.75 3.1861e-08
 633.00 3.5276e-08
 633.25 3.1432e-08
 633.50 2.4941e-08
 633.75 2.5073e-08
 634.00 2.5344e-08
 634.25 3.0756e-08
 634.50 3.1533e-08
 634.75 3.8125e-08
 635.00 3.4758e-08
 635.25 2.6569e-08
 635.50 1.6892e-08
 635.75 1.7993e-08
 636.00 2.7054e-08
 636.25 2.7705e-08
 636.50 2.7187e-08
 636.75 2.2969e-08
 637.00 2.3444e-08
 637.25 2.1714e-08
 637.50 1.8637e-08
 637.75 1.3478e-08
 638.00 1.2072e-08
 638.25 9.3523e-09
 638.50 7.2526e-09
 638.75 1.0976e-08
 639.00 1.2302e-08
 639.25 1.3531e-08
 639.50 1.2377e-08
 639.75 1.1679e-08
 640.00 9.4531e-09
 640.25 6.8989e-09
 640.50 7.9868e-09
 640.75 9.8064e-09
 641.00 1.3253e-08
 641.25 1.1592e-08
 641.50 1.0318e-08
 641.75 7.7663e-09
 642.00 5.5899e-09
 642.25 8.1535e-09
 642.50 9.6253e-09
 642.75 1.4574e-08
 643.00 1.6386e-08
 643.25 1.5098e-08
 643.50 9.7096e-09
 643.75 1.1053e-08
 644.00 1.4057e-08
 644.25 1.7542e-08
 644.50 1.9088e-08
 644.75 1.3796e-08
 645.00 1.0804e-08
 645.25 1.2386e-08
 645.50 1.8648e-08
 645.75 1.7013e-08
 646.00 1.6314e-08
 646.25 1.4240e-08
 646.50 7.5035e-09
 646.75 9.5324e-09
 647.00 1.4421e-08
 647.25 1.3097e-08
 647.50 1.2327e-08
 647.75 1.5449e-08
 648.00 2.1870e-08
 648.25 2.0168e-08
 648.50 1.4445e-08
 648.75 1.5533e-08
 649.00 1.4447e-08
 649.25 9.8118e-09
 649.50 9.2326e-09
 649.75 1.5445e-08
 650.00 2.2305e-08
 650.25 2.2355e-08
 650.50 1.6997e-08
 650.75 1.8891e-08
 651.00 1.8283e-08
 651.25 1.3099e-08
 651.50 1.0335e-08
 651.75 1.1270e-08
 652.00 1.2896e-08
 652.25 1.5152e-08
 652.50 1.7594e-08
 652.75 1.2190e-08
 653.00 1.0869e-08
 653.25 1.4582e-08
 653.50 1.4890e-08
 653.75 1.2664e-08
 654.00 1.0165e-08
 654.25 6.6192e-09
 654.50 6.6436e-09
 654.75 1.0706e-08
 655.00 1.1548e-08
 655.25 5.9372e-09
 655.50 6.4641e-09
 655.75 1.5697e-08
 656.00 1.7155e-08
 656.25 1.4207e-08
 656.50 9.8834e-09
 656.75 8.2432e-09
 657.00 6.9772e-09
 657.25 4.2985e-09
 657.50 4.4588e-09
 657.75 8.9457e-09
 658.00 1.8798e-08
 658.25 2.1232e-08
 658.50 1.5387e-08
 658.75 1.3340e-08
 659.00 1.3129e-08
 659.25 1.2681e-08
 659.50 1.7184e-08
 659.75 1.6645e-08
 660.00 7.1693e-09
 660.25 3.1672e-09
 660.50 6.3278e-09
 660.75 1.0137e-08
 661.00 1.9623e-08
 661.25 2.1199e-08
 661.50 1.5794e-08
 661.75 1.4904e-08
 662.00 1.1142e-08
 662.25 9.7986e-09
 662.50 1.5697e-08
 662.75 1.8981e-08
 663.00 1.8327e-08
 663.25 2.1359e-08
 663.50 1.7963e-08
 663.75 1.0662e-08
 664.00 9.1324e-09
 664.25 1.1886e-08
 664.50 1.1959e-08
 664.75 6.3060e-09
 665.00 1.8191e-09
 665.25 9.6062e-09
 665.50 2.3747e-08
 665.75 2.3489e-08
 666.00 1.4203e-08
 666.25 1.6035e-08
 666.50 1.6257e-08
 666.75 1.3724e-08
 667.00 1.0504e-08
 667.25 1.9437e-08
 667.50 5.3753e-08
 667.75 6.2150e-08
 668.00 4.2682e-08
 668.25 2.7412e-08
 668.50 2.0565e-08
 668.75 1.3339e-08
 669.00 9.2017e-09
 669.25 5.1368e-09
 669.50 4.6484e-09
 669.75 1.2450e-08
 670.00 1.4444e-08
 670.25 1.6560e-08
 670.50 2.1756e-08
 670.75 2.4373e-08
 671.00 1.8366e-08
 671.25 1.3991e-08
 671.50 1.2201e-08
 671.75 1.2898e-08
 672.00 1.1644e-08
 672.25 1.0083e-08
 672.50 1.6303e-08
 672.75 1.9471e-08
 673.00 1.9281e-08
 673.25 2.0759e-08
 673.50 1.7781e-08
 673.75 9.1789e-09
 674.00 3.6810e-09
 674.25 1.2088e-08
 674.50 1.8494e-08
 674.75 1.5132e-08
 675.00 1.3682e-08
 675.25 1.2442e-08
 675.50 1.2119e-08
 675.75 1.1490e-08
 676.00 1.3090e-08
 676.25 1.3798e-08
 676.50 1.7433e-08
 676.75 1.4749e-08
 677.00 1.3024e-08
 677.25 2.0437e-08
 677.50 2.4131e-08
 677.75 2.2931e-08
 678.00 1.7820e-08
 678.25 1.3375e-08
 678.50 1.1428e-08
 678.75 1.4682e-08
 679.00 2.1623e-08
 679.25 2.6469e-08
 679.50 2.7201e-08
 679.75 2.8446e-08
 680.00 2.3977e-08
 680.25 1.5079e-08
 680.50 1.1709e-08
 680.75 1.1781e-08
 681.00 1.0138e-08
 681.25 1.3132e-08
 681.50 1.4583e-08
 681.75 1.4768e-08
 682.00 2.5326e-08
 682.25 3.3207e-08
 682.50 2.3638e-08
 682.75 1.0222e-08
 683.00 8.8765e-09
 683.25 1.1306e-08
 683.50 9.8589e-09
 683.75 1.0773e-08
 684.00 1.7997e-08
 684.25 2.7188e-08
 684.50 3.2157e-08
 684.75 2.2061e-08
 685.00 1.3346e-08
 685.25 1.9687e-08
 685.50 2.3361e-08
 685.75 1.3647e-08
 686.00 8.7460e-09
 686.25 1.0043e-08
 686.50 1.8201e-08
 686.75 2.8483e-08
 687.00 1.9176e-08
 687.25 5.0967e-09
 687.50 3.2663e-09
 687.75 1.4297e-08
 688.00 2.2559e-08
 688.25 2.5339e-08
 688.50 2.4864e-08
 688.75 2.3964e-08
 689.00 3.3046e-08
 689.25 3.0773e-08
 689.50 1.5135e-08
 689.75 1.2084e-08
 690.00 1.7021e-08
 690.25 1.9800e-08
 690.50 1.4600e-08
 690.75 1.5152e-08
 691.00 2.7114e-08
 691.25 4.0749e-08
 691.50 4.0281e-08
 691.75 1.8329e-08
 692.00 1.1285e-08
 692.25 1.9244e-08
 692.50 2.4289e-08
 692.75 1.8866e-08
 693.00 1.1034e-08
 693.25 1.2873e-08
 693.50 1.9953e-08
 693.75 3.6847e-08
 694.00 3.5953e-08
 694.25 2.2445e-08
 694.50 2.0338e-08
 694.75 1.3245e-08
 695.00 8.8427e-09
 695.25 1.2528e-08
 695.50 2.3874e-08
 695.75 2.8034e-08
 696.00 3.1117e-08
 696.25 3.2343e-08
 696.50 2.2505e-08
 696.75 2.3337e-08
 697.00 2.6009e-08
 697.25 2.3997e-08
 697.50 1.3532e-08
 697.75 1.4499e-08
 698.00 2.1184e-08
 698.25 2.9791e-08
 698.50 4.0951e-08
 698.75 2.8417e-08
 699.00 1.9912e-08
 699.25 2.8665e-08
 699.50 3.0779e-08
 699.75 2.4113e-08
 700.00 3.0607e-08
 700.25 3.6436e-08
 700.50 3.0077e-08
 700.75 2.7854e-08
 701.00 1.9579e-08
 701.25 1.9516e-08
 701.50 2.6214e-08
 701.75 1.7448e-08
 702.00 1.3864e-08
 702.25 1.8078e-08
 702.50 2.4489e-08
 702.75 2.7634e-08
 703.00 3.7761e-08
 703.25 4.4548e-08
 703.50 2.6056e-08
 703.75 1.4009e-08
 704.00 1.3496e-08
 704.25 1.5159e-08
 704.50 1.8062e-08
 704.75 2.0508e-08
 705.00 2.6231e-08
 705.25 3.2834e-08
 705.50 3.5933e-08
 705.75 4.0547e-08
 706.00 4.6648e-08
 706.25 3.5722e-08
 706.50 1.9137e-08
 706.75 1.6483e-08
 707.00 2.0089e-08
 707.25 2.6568e-08
 707.50 3.1286e-08
 707.75 3.9095e-08
 708.00 4.4348e-08
 708.25 2.5831e-08
 708.50 8.5978e-09
 708.75 6.5814e-09
 709.00 1.0578e-08
 709.25 1.8663e-08
 709.50 1.8756e-08
 709.75 2.5983e-08
 710.00 3.7464e-08
 710.25 4.5674e-08
 710.50 4.2628e-08
 710.75 2.8596e-08
 711.00 2.6638e-08
 711.25 3.0431e-08
 711.50 3.5351e-08
 711.75 4.8714e-08
 712.00 8.8796e-08
 712.25 1.0496e-07
 712.50 9.2265e-08
 712.75 8.2633e-08
 713.00 4.9987e-08
 713.25 3.1463e-08
 713.50 3.7081e-08
 713.75 4.4029e-08
 714.00 4.3805e-08
 714.25 4.8070e-08
 714.50 6.6995e-08
 714.75 7.2500e-08
 715.00 6.8332e-08
 715.25 4.8347e-08
 715.50 2.9729e-08
 715.75 2.6187e-08
 716.00 4.1865e-08
 716.25 9.1126e-08
 716.50 8.4809e-08
 716.75 4.1248e-08
 717.00 3.5886e-08
 717.25 5.2946e-08
 717.50 5.3686e-08
 717.75 3.3484e-08
 718.00 2.3751e-08
 718.25 1.1233e-08
 718.50 7.8497e-09
 718.75 1.6443e-08
 719.00 2.7505e-08
 719.25 3.1880e-08
 719.50 4.5053e-08
 719.75 8.3705e-08
 720.00 7.9037e-08
 720.25 2.9619e-08
 720.50 1.4933e-08
 720.75 2.2516e-08
 721.00 2.4345e-08
 721.25 2.5674e-08
 721.50 2.3203e-08
 721.75 2.5833e-08
 722.00 3.5655e-08
 722.25 3.0673e-08
 722.50 1.3483e-08
 722.75 1.0285e-08
 723.00 1.6487e-08
 723.25 2.2268e-08
 723.50 2.6258e-08
 723.75 3.4365e-08
 724.00 3.0012e-08
 724.25 2.2451e-08
 724.50 1.8766e-08
 724.75 1.7907e-08
 725.00 1.7713e-08
 725.25 1.8472e-08
 725.50 2.4953e-08
 725.75 2.7131e-08
 726.00 2.7512e-08
 726.25 1.9077e-08
 726.50 1.8105e-08
 726.75 2.2081e-08
 727.00 2.1711e-08
 727.25 1.9402e-08
 727.50 2.0607e-08
 727.75 1.9987e-08
 728.00 3.8691e-08
 728.25 8.4749e-08
 728.50 1.0055e-07
 728.75 1.0157e-07
 729.00 2.0305e-07
 729.25 3.3961e-07
 729.50 3.1567e-07
 729.75 2.1689e-07
 730.00 1.6133e-07
 730.25 1.3292e-07
 730.50 1.1021e-07
 730.75 1.0181e-07
 731.00 1.5014e-07
 731.25 1.5996e-07
 731.50 1.1082e-07
 731.75 8.4813e-08
 732.00 6.7329e-08
 732.25 5.6002e-08
 732.50 5.6535e-08
 732.75 5.5762e-08
 733.00 4.3002e-08
 733.25 3.0177e-08
 733.50 3.1277e-08
 733.75 4.8359e-08
 734.00 5.0442e-08
 734.25 3.2545e-08
 734.50 3.1474e-08
 734.75 3.6392e-08
 735.00 3.4239e-08
 735.25 2.5931e-08
 735.50 2.6225e-08
 735.75 3.1550e-08
 736.00 4.2046e-08
 736.25 4.9237e-08
 736.50 2.9115e-08
 736.75 1.9098e-08
 737.00 2.0234e-08
 737.25 2.0008e-08
 737.50 2.5520e-08
 737.75 2.5835e-08
 738.00 3.5168e-08
 738.25 4.6033e-08
 738.50 5.7324e-08
 738.75 4.7900e-08
 739.00 2.8545e-08
 739.25 2.9623e-08
 739.50 3.2110e-08
 739.75 3.0778e-08
 740.00 1.7926e-08
 740.25 2.5841e-08
 740.50 4.6986e-08
 740.75 5.3236e-08
 741.00 4.9068e-08
 741.25 3.8186e-08
 741.50 3.2602e-08
 741.75 2.9550e-08
 742.00 2.6894e-08
 742.25 1.9362e-08
 742.50 1.2950e-08
 742.75 2.3280e-08
 743.00 4.7345e-08
 743.25 6.3641e-08
 743.50 4.5484e-08
 743.75 1.9983e-08
 744.00 2.3210e-08
 744.25 3.6435e-08
 744.50 3.4862e-08
 744.75 2.2073e-08
 745.00 2.4010e-08
 745.25 4.0346e-08
 745.50 5.4112e-08
 745.75 4.5901e-08
 746.00 2.6649e-08
 746.25 2.3869e-08
 746.50 3.1571e-08
 746.75 2.9989e-08
 747.00 2.5196e-08
 747.25 3.1943e-08
 747.50 4.6982e-08
 747.75 7.3688e-08
 748.00 8.7855e-08
 748.25 6.7270e-08
 748.50 4.6458e-08
 748.75 4.5247e-08
 749.00 4.0133e-08
 749.25 2.8418e-08
 749.50 2.8210e-08
 749.75 3.4891e-08
 750.00 4.9448e-08
 750.25 6.6872e-08
 750.50 5.2525e-08
 750.75 2.9764e-08
 751.00 2.7583e-08
 751.25 3.3516e-08
 751.50 2.8843e-08
 751.75 2.0986e-08
 752.00 2.3396e-08
 752.25 2.8544e-08
 752.50 4.4501e-08
 752.75 4.6506e-08
 753.00 3.3035e-08
 753.25 3.9307e-08
 753.50 4.0861e-08
 753.75 3.0270e-08
 754.00 2.8178e-08
 754.25 2.3352e-08
 754.50 2.5480e-08
 754.75 3.5792e-08
 755.00 4.4723e-08
 755.25 3.7439e-08
 755.50 3.0456e-08
 755.75 3.4897e-08
 756.00 3.4499e-08
 756.25 3.4245e-08
 756.50 2.1723e-08
 756.75 1.9265e-08
 757.00 3.4189e-08
 757.25 5.0111e-08
 757.50 5.0896e-08
 757.75 3.5750e-08
 758.00 3.2389e-08
 758.25 2.4402e-08
 758.50 1.0223e-08
 758.75 8.0142e-09
 759.00 1.8708e-08
 759.25 3.2303e-08
 759.50 3.6513e-08
 759.75 4.1205e-08
 760.00 3.8760e-08
 760.25 3.8584e-08
 760.50 3.7198e-08
 760.75 2.6532e-08
 761.00 2.0357e-08
 761.25 2.1076e-08
 761.50 2.5105e-08
 761.75 3.1696e-08
 762.00 5.0349e-08
 762.25 4.5915e-08
 762.50 3.3235e-08
 762.75 3.2241e-08
 763.00 2.6814e-08
 763.25 2.0267e-08
 763.50 1.5383e-08
 763.75 2.0753e-08
 764.00 3.0943e-08
 764.25 3.2923e-08
 764.50 2.8651e-08
 764.75 -7.0754e-09
 765.00 -6.1743e-08
 765.25 -3.1968e-08
 765.50 2.5549e-08
 765.75 3.6540e-08
 766.00 4.0998e-08
 766.25 4.2424e-08
 766.50 4.8593e-08
 766.75 4.9955e-08
 767.00 3.7061e-08
 767.25 3.0378e-08
 767.50 3.1268e-08
 767.75 3.4344e-08
 768.00 3.7253e-08
 768.25 3.1243e-08
 768.50 2.8469e-08
 768.75 2.9223e-08
 769.00 3.5235e-08
 769.25 3.6692e-08
 769.50 2.5600e-08
 769.75 1.6890e-08
 770.00 1.7723e-08
 770.25 2.6039e-08
 770.50 3.6160e-08
 770.75 4.5446e-08
 771.00 4.0768e-08
 771.25 3.9550e-08
 771.50 3.6312e-08
 771.75 2.3405e-08
 772.00 2.2836e-08
 772.25 2.7965e-08
 772.50 2.7658e-08
 772.75 2.2292e-08
 773.00 1.6257e-08
 773.25 1.6172e-08
 773.50 2.5918e-08
 773.75 3.6353e-08
 774.00 3.5080e-08
 774.25 2.6895e-08
 774.50 2.2587e-08
 774.75 2.1784e-08
 775.00 2.8284e-08
 775.25 3.3186e-08
 775.50 3.6426e-08
 775.75 3.9899e-08
 776.00 3.9550e-08
 776.25 3.5309e-08
 776.50 3.0661e-08
 776.75 3.6826e-08
 777.00 3.2514e-08
 777.25 1.9776e-08
 777.50 1.9236e-08
 777.75 2.3500e-08
 778.00 2.8301e-08
 778.25 3.7372e-08
 778.50 4.3450e-08
 778.75 3.8864e-08
 779.00 3.8706e-08
 779.25 3.9063e-08
 779.50 3.1837e-08
 779.75 2.8067e-08
 780.00 3.0078e-08
 780.25 3.4746e-08
 780.50 4.3724e-08
 780.75 4.5781e-08
 781.00 3.1608e-08
 781.25 2.6879e-08
 781.50 2.9272e-08
 781.75 3.1801e-08
 782.00 4.0718e-08
 782.25 4.1500e-08
 782.50 3.5654e-08
 782.75 3.5820e-08
 783.00 4.1635e-08
 783.25 4.1671e-08
 783.50 3.6132e-08
 783.75 3.2713e-08
 784.00 3.2369e-08
 784.25 3.4610e-08
 784.50 3.8525e-08
 784.75 3.4313e-08
 785.00 2.8084e-08
 785.25 3.6271e-08
 785.50 4.4596e-08
 785.75 4.5754e-08
 786.00 4.6217e-08
 786.25 3.8244e-08
 786.50 3.0940e-08
 786.75 2.4778e-08
 787.00 2.6807e-08
 787.25 3.8360e-08
 787.50 3.9757e-08
 787.75 4.3995e-08
 788.00 4.1329e-08
 788.25 2.8211e-08
 788.50 2.2314e-08
 788.75 2.0786e-08
 789.00 2.7760e-08
 789.25 3.7291e-08
 789.50 3.9110e-08
 789.75 3.7330e-08
 790.00 3.8987e-08
 790.25 4.3558e-08
 790.50 4.2587e-08
 790.75 3.6757e-08
 791.00 2.9493e-08
 791.25 2.9391e-08
 791.50 3.9249e-08
 791.75 4.5874e-08
 792.00 4.7419e-08
 792.25 4.8367e-08
 792.50 3.4502e-08
 792.75 2.9280e-08
 793.00 4.1526e-08
 793.25 4.4834e-08
 793.50 4.5118e-08
 793.75 4.3094e-08
 794.00 4.7376e-08
 794.25 4.8811e-08
 794.50 4.4765e-08
 794.75 4.4982e-08
 795.00 4.6807e-08
 795.25 4.6270e-08
 795.50 4.5384e-08
 795.75 4.3703e-08
 796.00 4.6580e-08
 796.25 5.1986e-08
 796.50 4.8583e-08
 796.75 4.3565e-08
 797.00 4.0573e-08
 797.25 4.0191e-08
 797.50 3.5854e-08
 797.75 3.4529e-08
 798.00 3.5640e-08
 798.25 4.4506e-08
 798.50 5.9836e-08
 798.75 7.3194e-08
 799.00 8.1058e-08
 799.25 6.8629e-08
 799.50 4.4305e-08
 799.75 4.1865e-08
 800.00 3.9002e-08
 800.25 2.7639e-08
 800.50 3.5824e-08
 800.75 4.9641e-08
 801.00 6.4718e-08
 801.25 7.7188e-08
 801.50 7.5627e-08
 801.75 5.8442e-08
 802.00 4.7861e-08
 802.25 4.5871e-08
 802.50 4.8767e-08
 802.75 3.8462e-08
 803.00 3.0749e-08
 803.25 4.9601e-08
 803.50 7.0898e-08
 803.75 9.0263e-08
 804.00 9.6754e-08
 804.25 6.4666e-08
 804.50 3.3916e-08
 804.75 4.7930e-08
 805.00 5.8380e-08
 805.25 4.3576e-08
 805.50 2.6932e-08
 805.75 3.2324e-08
 806.00 6.2612e-08
 806.25 1.0830e-07
 806.50 1.4002e-07
 806.75 1.0867e-07
 807.00 4.2767e-08
 807.25 2.9781e-08
 807.50 5.4258e-08
 807.75 5.9841e-08
 808.00 4.0913e-08
 808.25 3.2752e-08
 808.50 5.0034e-08
 808.75 8.7239e-08
 809.00 1.3352e-07
 809.25 1.1741e-07
 809.50 5.4284e-08
 809.75 2.2977e-08
 810.00 3.5889e-08
 810.25 6.3684e-08
 810.50 6.0437e-08
 810.75 3.4069e-08
 811.00 4.2912e-08
 811.25 6.3609e-08
 811.50 1.1223e-07
 811.75 1.4756e-07
 812.00 8.8853e-08
 812.25 2.8258e-08
 812.50 1.7615e-08
 812.75 3.3992e-08
 813.00 6.3813e-08
 813.25 5.5343e-08
 813.50 3.5785e-08
 813.75 5.1116e-08
 814.00 8.8269e-08
 814.25 1.5491e-07
 814.50 1.3998e-07
 814.75 5.0157e-08
 815.00 1.6352e-08
 815.25 2.1863e-08
 815.50 3.9516e-08
 815.75 5.9577e-08
 816.00 5.0784e-08
 816.25 5.3309e-08
 816.50 7.9928e-08
 816.75 1.3247e-07
 817.00 1.6813e-07
 817.25 1.0180e-07
 817.50 2.9063e-08
 817.75 1.0042e-08
 818.00 1.4443e-08
 818.25 4.7262e-08
 818.50 7.1095e-08
 818.75 5.7819e-08
 819.00 5.5100e-08
 819.25 8.5570e-08
 819.50 1.4514e-07
 819.75 1.3966e-07
 820.00 5.5768e-08
 820.25 1.3640e-08
 820.50 1.6362e-08
 820.75 2.5976e-08
 821.00 4.4894e-08
 821.25 4.8505e-08
 821.50 3.5918e-08
 821.75 3.7798e-08
 822.00 1.0297e-07
 822.25 2.0349e-07
 822.50 1.4834e-07
 822.75 3.3080e-08
 823.00 9.4279e-09
 823.25 1.3321e-08
 823.50 3.5333e-08
 823.75 6.7782e-08
 824.00 7.6068e-08
 824.25 7.7474e-08
 824.50 1.0130e-07
 824.75 1.5772e-07
 825.00 1.6651e-07
 825.25 7.4939e-08
 825.50 2.2559e-08
 825.75 2.2095e-08
 826.00 3.1575e-08
 826.25 5.6838e-08
 826.50 5.9745e-08
 826.75 5.5852e-08
 827.00 7.1048e-08
 827.25 1.0828e-07
 827.50 1.5518e-07
 827.75 1.1113e-07
 828.00 2.7528e-08
 828.25 1.2048e-08
 828.50 1.8201e-08
 828.75 4.1870e-08
 829.00 6.0417e-08
 829.25 5.3554e-08
 829.50 5.8374e-08
 829.75 9.3032e-08
 830.00 1.4904e-07
 830.25 1.6413e-07
 830.50 7.2055e-08
 830.75 8.3218e-09
 831.00 1.6148e-08
 831.25 3.3622e-08
 831.50 6.5359e-08
 831.75 5.7506e-08
 832.00 4.0163e-08
 832.25 4.9921e-08
 832.50 8.8332e-08
 832.75 1.5374e-07
 833.00 1.3277e-07
 833.25 4.2639e-08
 833.50 1.4796e-08
 833.75 2.3655e-08
 834.00 5.5861e-08
 834.25 6.3949e-08
 834.50 4.3481e-08
 834.75 5.5662e-08
 835.00 8.6949e-08
 835.25 1.3718e-07
 835.50 1.6579e-07
 835.75 9.3290e-08
 836.00 8.0535e-10
 836.25 9.0291e-09
 836.50 5.0290e-08
 836.75 5.7391e-08
 837.00 3.8899e-08
 837.25 2.3471e-08
 837.50 3.2775e-08
 837.75 7.7483e-08
 838.00 1.2626e-07
 838.25 1.2552e-07
 838.50 6.7938e-08
 838.75 1.6568e-08
 839.00 2.1064e-08
 839.25 4.3846e-08
 839.50 4.1267e-08
 839.75 2.3520e-08
 840.00 1.7473e-08
 840.25 4.2567e-08
 840.50 9.0934e-08
 840.75 1.0624e-07
 841.00 8.4689e-08
 841.25 4.9385e-08
 841.50 3.1588e-08
 841.75 4.1485e-08
 842.00 5.9969e-08
 842.25 6.3547e-08
 842.50 4.1146e-08
 842.75 4.0960e-08
 843.00 6.0833e-08
 843.25 7.3603e-08
 843.50 7.7063e-08
 843.75 6.7028e-08
 844.00 5.0164e-08
 844.25 4.0843e-08
 844.50 5.2603e-08
 844.75 6.3508e-08
 845.00 4.6576e-08
 845.25 3.3562e-08
 845.50 4.1486e-08
 845.75 5.5311e-08
 846.00 7.3928e-08
 846.25 7.2247e-08
 846.50 6.3761e-08
 846.75 5.5066e-08
 847.00 3.9709e-08
 847.25 4.2453e-08
 847.50 4.3324e-08
 847.75 3.2119e-08
 848.00 2.7586e-08
 848.25 3.6036e-08
 848.50 5.6717e-08
 848.75 6.3777e-08
 849.00 5.0774e-08
 849.25 4.4563e-08
 849.50 3.6229e-08
 849.75 3.5050e-08
 850.00 4.5556e-08
 850.25 4.7983e-08
 850.50 3.9806e-08
 850.75 3.4144e-08
 851.00 3.8138e-08
 851.25 4.5070e-08
 851.50 4.6223e-08
 851.75 4.0824e-08
 852.00 4.2881e-08
 852.25 4.0827e-08
 852.50 3.4756e-08
 852.75 3.0147e-08
 853.00 2.6450e-08
 853.25 2.5641e-08
 853.50 3.2984e-08
 853.75 4.3996e-08
 854.00 4.6712e-08
 854.25 3.3734e-08
 854.50 1.6643e-08
 854.75 2.1402e-08
 855.00 3.7668e-08
 855.25 4.0816e-08
 855.50 3.4266e-08
 855.75 3.1871e-08
 856.00 2.9675e-08
 856.25 2.8927e-08
 856.50 3.2369e-08
 856.75 3.7638e-08
 857.00 4.0130e-08
 857.25 3.7684e-08
 857.50 3.2682e-08
 857.75 3.5906e-08
 858.00 3.8072e-08
 858.25 2.9892e-08
 858.50 2.7633e-08
 858.75 3.2311e-08
 859.00 3.0840e-08
 859.25 2.9508e-08
 859.50 3.1281e-08
 859.75 3.8175e-08
 860.00 4.1553e-08
 860.25 2.9786e-08
 860.50 2.2807e-08
 860.75 2.4917e-08
 861.00 3.4982e-08
 861.25 4.0544e-08
 861.50 4.4104e-08
 861.75 4.6289e-08
 862.00 3.7057e-08
 862.25 2.6728e-08
 862.50 2.8247e-08
 862.75 2.8330e-08
 863.00 2.5748e-08
 863.25 2.6157e-08
 863.50 2.1837e-08
 863.75 2.4696e-08
 864.00 2.9376e-08
 864.25 3.0019e-08
 864.50 2.3078e-08
 864.75 2.2542e-08
 865.00 2.7379e-08
 865.25 2.5905e-08
 865.50 2.4741e-08
 865.75 3.0557e-08
 866.00 3.2181e-08
 866.25 2.8313e-08
 866.50 2.9145e-08
 866.75 2.5078e-08
 867.00 2.3318e-08
 867.25 2.6486e-08
 867.50 2.9082e-08
 867.75 2.6002e-08
 868.00 2.5263e-08
 868.25 2.4987e-08
 868.50 2.2734e-08
 868.75 2.6740e-08
 869.00 2.5811e-08
 869.25 2.0578e-08
 869.50 1.9484e-08
 869.75 1.9690e-08
 870.00 1.8205e-08
 870.25 1.9155e-08
 870.50 2.2151e-08
 870.75 2.3533e-08
 871.00 2.1335e-08
 871.25 1.7436e-08
 871.50 1.5436e-08
 871.75 1.2184e-08
 872.00 1.3397e-08
 872.25 2.1753e-08
 872.50 2.0746e-08
 872.75 1.0521e-08
 873.00 1.1730e-08
 873.25 2.0128e-08
 873.50 2.1617e-08
 873.75 1.7278e-08
 874.00 1.4779e-08
 874.25 1.5390e-08
 874.50 1.9273e-08
 874.75 3.0019e-08
 875.00 3.3154e-08
 875.25 2.6952e-08
 875.50 1.9511e-08
 875.75 1.3761e-08
 876.00 1.8911e-08
 876.25 2.8188e-08
 876.50 2.5700e-08
 876.75 2.1858e-08
 877.00 2.1463e-08
 877.25 1.5457e-08
 877.50 1.7121e-08
 877.75 2.3076e-08
 878.00 1.7653e-08
 878.25 1.3734e-08
 878.50 1.6080e-08
 878.75 1.2235e-08
 879.00 1.2653e-08
 879.25 1.6421e-08
 879.50 1.6093e-08
 879.75 1.7042e-08
 880.00 1.7365e-08
 880.25 2.1455e-08
 880.50 2.6975e-08
 880.75 2.7038e-08
 881.00 2.0966e-08
 881.25 2.0444e-08
 881.50 2.2012e-08
 881.75 1.2982e-08
 882.00 3.8003e-09
 882.25 4.0353e-09
 882.50 1.3620e-08
 882.75 1.8138e-08
 883.00 1.3803e-08
 883.25 8.9118e-09
 883.50 7.9862e-09
 883.75 1.1659e-08
 884.00 1.9098e-08
 884.25 1.9788e-08
 884.50 1.7445e-08
 884.75 1.6823e-08
 885.00 1.0036e-08
 885.25 7.7780e-09
 885.50 9.5222e-09
 885.75 1.1224e-08
 886.00 9.4589e-09
 886.25 9.2491e-09
 886.50 1.1838e-08
 886.75 5.3243e-09
 887.00 -5.1158e-09
 887.25 -3.9131e-10
 887.50 9.2148e-09
 887.75 1.5382e-08
 888.00 1.2708e-08
 888.25 6.3780e-09
 888.50 1.0564e-08
 888.75 9.5661e-09
 889.00 1.1228e-08
 889.25 1.3857e-08
 889.50 1.6645e-08
 889.75 1.5653e-08
 890.00 1.1106e-08
 890.25 8.9055e-09
 890.50 4.0612e-09
 890.75 6.9443e-09
 891.00 1.1141e-08
 891.25 1.6448e-08
 891.50 2.4444e-08
 891.75 2.0456e-08
 892.00 9.8051e-09
 892.25 4.1996e-09
 892.50 4.4700e-09
 892.75 1.6260e-10
 893.00 -2.8603e-09
 893.25 4.9424e-09
 893.50 8.2622e-09
 893.75 6.3227e-09
 894.00 7.2577e-09
 894.25 1.2079e-08
 894.50 1.3022e-08
 894.75 1.2900e-08
 895.00 8.0730e-09
 895.25 9.1547e-10
 895.50 -5.1639e-10
 895.75 8.5151e-09
 896.00 1.2123e-08
 896.25 1.0983e-09
 896.50 2.4103e-09
 896.75 8.1803e-09
 897.00 1.1375e-08
 897.25 1.2360e-08
 897.50 8.4575e-09
 897.75 8.1225e-09
 898.00 1.4326e-08
 898.25 2.1773e-08
 898.50 1.9314e-08
 898.75 1.0700e-08
 899.00 1.0411e-08
 899.25 1.3608e-08
 899.50 1.1354e-08
 899.75 5.4993e-09
 900.00 7.1429e-09
 900.25 7.2615e-09
 900.50 6.4622e-09
 900.75 6.9416e-09
 901.00 1.0994e-09
 901.25 2.8230e-09
 901.50 6.2965e-09
 901.75 8.6071e-09
 902.00 1.1939e-08
 902.25 1.0331e-08
 902.50 8.6117e-09
 902.75 1.5577e-08
 903.00 1.6904e-08
 903.25 1.0843e-08
 903.50 1.1965e-08
 903.75 1.9353e-08
 904.00 2.1299e-08
 904.25 1.4591e-08
 904.50 4.8114e-09
 904.75 1.5713e-09
 905.00 7.9771e-09
 905.25 8.8295e-09
 905.50 4.7406e-09
 905.75 8.2500e-09
 906.00 8.0115e-09
 906.25 -1.2777e-09
 906.50 -2.2930e-09
 906.75 5.4798e-09
 907.00 8.5259e-09
 907.25 4.3787e-09
 907.50 5.8005e-09
 907.75 5.3258e-09
 908.00 2.7935e-09
 908.25 -3.5202e-09
 908.50 -4.5958e-09
 908.75 4.7574e-10
 909.00 6.8877e-09
 909.25 1.3572e-08
 909.50 9.4957e-09
 909.75 8.3776e-09
 910.00 3.5370e-09
 910.25 2.9389e-09
 910.50 8.9038e-09
 910.75 1.0485e-08
 911.00 8.3152e-09
 911.25 6.7419e-09
 911.50 4.2190e-09
 911.75 2.6415e-09
 912.00 7.7314e-09
 912.25 1.6521e-08
 912.50 1.8980e-08
 912.75 1.1266e-08
 913.00 9.0710e-09
 913.25 1.0181e-08
 913.50 9.1453e-09
 913.75 6.6685e-09
 914.00 9.1187e-09
 914.25 8.3983e-09
 914.50 -1.2495e-09
 914.75 -1.8589e-09
 915.00 4.6755e-09
 915.25 7.2265e-09
 915.50 6.8656e-09
 915.75 6.0383e-09
 916.00 9.5212e-09
 916.25 8.7158e-09
 916.50 2.1269e-09
 916.75 5.7638e-09
 917.00 9.0587e-09
 917.25 1.8228e-09
 917.50 3.9700e-09
 917.75 1.1350e-08
 918.00 4.3224e-09
 918.25 -1.1209e-09
 918.50 2.8119e-09
 918.75 5.2963e-09
 919.00 6.4834e-09
 919.25 5.5591e-09
 919.50 6.1431e-09
 919.75 6.8899e-09
 920.00 3.3653e-09
 920.25 -4.5478e-10
 920.50 -6.6629e-09
 920.75 -2.7796e-09
 921.00 7.4496e-09
 921.25 6.0955e-09
 921.50 5.0693e-09
 921.75 8.9127e-09
 922.00 3.7148e-09
 922.25 7.3621e-09
 922.50 2.1645e-08
 922.75 1.8366e-08
 923.00 1.5259e-08
 923.25 1.5525e-08
 923.50 6.6566e-09
 923.75 6.4361e-09
 924.00 1.2006e-08
 924.25 1.3379e-08
 924.50 1.3856e-08
 924.75 8.9998e-09
 925.00 5.5128e-09
 925.25 6.4948e-09
 925.50 8.2906e-09
 925.75 1.1535e-08
 926.00 1.0146e-08
 926.25 1.0257e-09
 926.50 -4.5564e-09
 926.75 4.1863e-09
 927.00 6.0926e-09
 927.25 -1.4350e-09
 927.50 9.1021e-10
 927.75 4.3770e-09
 928.00 8.7022e-09
 928.25 1.1049e-08
 928.50 3.7584e-09
 928.75 3.9908e-09
 929.00 8.0422e-09
 929.25 5.2986e-10
 929.50 -1.8925e-09
 929.75 2.5697e-09
 930.00 -2.5765e-10
 930.25 1.2064e-09
 930.50 7.4561e-09
 930.75 1.4549e-08
 931.00 2.1515e-08
 931.25 2.1854e-08
 931.50 1.8726e-08
 931.75 1.2279e-08
 932.00 3.9543e-09
 932.25 -7.0835e-09
 932.50 -7.4141e-09
 932.75 6.2561e-09
 933.00 5.4023e-09
 933.25 3.1499e-09
 933.50 8.9570e-09
 933.75 7.4743e-09
 934.00 5.9513e-09
 934.25 5.3385e-09
 934.50 7.9785e-09
 934.75 1.2110e-08
 935.00 7.5025e-09
 935.25 4.2856e-09
 935.50 3.9462e-09
 935.75 2.2745e-11
 936.00 1.7088e-09
 936.25 5.4673e-09
 936.50 9.3364e-09
 936.75 8.3914e-09
 937.00 8.6538e-09
 937.25 1.4473e-08
 937.50 1.8635e-08
 937.75 1.1832e-08
 938.00 -1.1407e-09
 938.25 4.6625e-10
 938.50 6.2333e-09
 938.75 9.3774e-09
 939.00 9.7711e-09
 939.25 5.8382e-09
 939.50 1.2076e-09
 939.75 1.5546e-09
 940.00 7.4865e-10
 940.25 3.3651e-09
 940.50 7.1067e-09
 940.75 5.1704e-09
 941.00 5.2069e-09
 941.25 8.8839e-09
 941.50 6.3168e-09
 941.75 -5.5199e-10
 942.00 4.0240e-09
 942.25 8.3668e-09
 942.50 7.5597e-09
 942.75 9.4883e-09
 943.00 1.5551e-08
 943.25 1.6164e-08
 943.50 2.1266e-08
 943.75 2.0737e-08
 944.00 1.0837e-08
 944.25 -2.3274e-10
 944.50 -1.1064e-08
 944.75 -7.0849e-09
 945.00 -5.2770e-10
 945.25 -7.5482e-10
 945.50 -6.7800e-09
 945.75 -4.0635e-09
 946.00 -4.0855e-10
 946.25 -4.1664e-09
 946.50 -3.3661e-10
 946.75 4.7952e-09
 947.00 5.2279e-09
 947.25 8.9366e-09
 947.50 1.1309e-08
 947.75 5.6259e-09
 948.00 4.8083e-09
 948.25 9.3298e-09
 948.50 6.0382e-09
 948.75 4.0439e-09
 949.00 6.3529e-09
 949.25 5.8872e-09
 949.50 3.9069e-09
 949.75 4.8933e-09
 950.00 8.4766e-09
 950.25 4.6742e-09
 950.50 -6.9330e-09
 950.75 -4.0642e-09
 951.00 7.0710e-09
 951.25 -6.4028e-10
 951.50 -7.8840e-09
 951.75 -2.9067e-09
 952.00 1.7549e-09
 952.25 7.2556e-09
 952.50 1.3763e-08
 952.75 5.5909e-09
 953.00 4.4186e-13
 953.25 4.2954e-09
 953.50 6.1802e-09
 953.75 7.5188e-09
 954.00 7.1464e-09
 954.25 2.8644e-09
 954.50 5.6440e-10
 954.75 7.0461e-09
 955.00 1.3783e-08
 955.25 1.2227e-08
 955.50 1.4771e-08
 955.75 2.3000e-08
 956.00 1.8586e-08
 956.25 1.6197e-08
 956.50 -1.6909e-08
 956.75 -3.5353e-08
 957.00 -1.0129e-08
 957.25 5.3583e-10
 957.50 4.1887e-09
 957.75 7.0017e-09
 958.00 1.2055e-08
 958.25 5.0783e-09
 958.50 -2.1243e-09
 958.75 -1.4107e-09
 959.00 2.6674e-11
 959.25 -4.4708e-09
 959.50 -4.2758e-09
 959.75 1.6026e-09
 960.00 1.1927e-09
 960.25 2.0644e-09
 960.50 1.4402e-09
 960.75 6.1551e-10
 961.00 -2.3310e-09
 961.25 -5.4903e-09
 961.50 -4.5341e-09
 961.75 4.1749e-09
 962.00 9.4376e-09
 962.25 7.5846e-09
 962.50 6.7480e-09
 962.75 6.8398e-09
 963.00 3.8905e-09
 963.25 -3.3987e-10
 963.50 5.0054e-10
 963.75 3.4682e-09
 964.00 -1.5442e-09
 964.25 -5.2529e-09
 964.50 3.9750e-09
 964.75 1.2573e-08
 965.00 1.6413e-08
 965.25 1.1727e-08
 965.50 2.0585e-09
 965.75 1.9804e-09
 966.00 5.8434e-09
 966.25 1.1979e-08
 966.50 1.1452e-08
 966.75 5.6354e-09
 967.00 6.1939e-09
 967.25 1.2039e-08
 967.50 1.9195e-08
 967.75 1.2912e-08
 968.00 6.0472e-09
 968.25 1.8120e-08
 968.50 1.3175e-08
 968.75 -9.6679e-09
 969.00 -4.8354e-09
 969.25 3.5902e-09
 969.50 6.1481e-09
 969.75 6.3522e-09
 970.00 -3.6380e-10
 970.25 -2.3354e-09
 970.50 2.9648e-09
 970.75 4.2508e-09
 971.00 1.1059e-09
 971.25 4.5979e-09
 971.50 1.8854e-09
 971.75 3.6198e-09
 972.00 8.7639e-09
 972.25 6.6512e-09
 972.50 4.8848e-09
 972.75 2.1473e-09
 973.00 -9.0609e-09
 973.25 -1.0029e-08
 973.50 1.1610e-09
 973.75 9.1776e-09
 974.00 1.1011e-08
 974.25 9.0507e-09
 974.50 7.1458e-09
 974.75 -1.2936e-09
 975.00 -6.6959e-09
 975.25 8.3650e-10
 975.50 2.6518e-09
 975.75 -2.1426e-09
 976.00 1.0363e-09
 976.25 2.0345e-09
 976.50 4.9889e-09
 976.75 6.1679e-09
 977.00 3.8303e-09
 977.25 -2.7695e-10
 977.50 -7.1669e-10
 977.75 2.5323e-09
 978.00 3.0541e-09
 978.25 4.8688e-10
 978.50 3.0763e-09
 978.75 4.7489e-09
 979.00 2.7107e-09
 979.25 1.0183e-08
 979.50 1.0052e-08
 979.75 1.1708e-08
 980.00 1.6061e-08
 980.25 1.8335e-08
 980.50 1.2620e-08
 980.75 -2.4459e-09
 981.00 -1.1926e-08
 981.25 -6.7124e-09
 981.50 4.2917e-09
 981.75 4.1351e-09
 982.00 -1.6153e-09
 982.25 -6.3611e-09
 982.50 1.5919e-09
 982.75 1.3066e-08
 983.00 1.5536e-08
 983.25 8.3509e-09
 983.50 4.4252e-09
 983.75 8.8634e-09
 984.00 1.5107e-09
 984.25 -8.2804e-09
 984.50 -9.3104e-09
 984.75 -2.9549e-09
 985.00 4.6784e-09
 985.25 1.4358e-09
 985.50 -3.5820e-10
 985.75 4.7094e-09
 986.00 9.3092e-09
 986.25 1.0115e-08
 986.50 2.4484e-09
 986.75 -5.3601e-09
 987.00 -8.5278e-10
 987.25 8.7809e-09
 987.50 1.3946e-08
 987.75 9.6229e-09
 988.00 3.6568e-09
 988.25 5.8434e-09
 988.50 8.8048e-09
 988.75 1.3132e-08
 989.00 1.2882e-08
 989.25 5.2516e-09
 989.50 2.5764e-09
 989.75 4.3215e-09
 990.00 4.9812e-09
 990.25 5.0133e-09
 990.50 6.9450e-09
 990.75 8.7822e-09
 991.00 3.6596e-09
 991.25 -1.5136e-10
 991.50 2.4178e-09
 991.75 3.2215e-09
 992.00 4.2086e-09
 992.25 9.7723e-09
 992.50 7.7806e-09
 992.75 6.3406e-09
 993.00 1.1410e-08
 993.25 1.3426e-08
 993.50 6.2372e-09
 993.75 1.7040e-10
 994.00 1.2326e-08
 994.25 1.5905e-08
 994.50 9.6517e-09
 994.75 4.1534e-09
 995.00 6.8208e-09
 995.25 1.4945e-08
 995.50 1.4635e-08
 995.75 8.4847e-09
 996.00 -5.3476e-09
 996.25 -1.1295e-08
 996.50 1.3692e-09
 996.75 1.5083e-08
 997.00 1.6303e-08
 997.25 1.4073e-08
 997.50 7.7422e-09
 997.75 8.9345e-09
 998.00 1.8827e-08
 998.25 1.8003e-08
 998.50 9.9824e-09
 998.75 4.2287e-09
 999.00 4.5106e-09
 999.25 2.0653e-09
 999.50 9.8317e-10
 999.75 2.8918e-09
1000.00 -6.1067e-10
1000.25 -7.6663e-09
1000.50 -8.6924e-09
1000.75 7.7006e-09
1001.00 1.9414e-08
1001.25 1.4585e-08
1001.50 6.8730e-09
1001.75 -4.4248e-10
1002.00 -1.0006e-08
1002.25 -1.7437e-08
1002.50 -1.3382e-08
1002.75 -2.2498e-09
1003.00 4.9199e-09
1003.25 -3.7202e-10
1003.50 -1.1417e-08
1003.75 -8.0636e-09
1004.00 9.6511e-09
1004.25 1.2052e-08
1004.50 5.1793e-09
1004.75 3.9458e-09
1005.00 5.7433e-09
1005.25 9.2104e-09
1005.50 8.7721e-09
1005.75 1.0735e-08
1006.00 8.9905e-09
1006.25 1.1167e-08
1006.50 1.2006e-08
1006.75 4.6763e-09
1007.00 -1.0099e-10
1007.25 -6.5934e-09
1007.50 -4.8353e-09
1007.75 -2.1957e-09
1008.00 2.5746e-09
1008.25 1.1177e-08
1008.50 3.0016e-09
1008.75 9.1716e-10
1009.00 8.6370e-09
1009.25 4.3682e-09
1009.50 9.1981e-09
1009.75 1.3879e-08
1010.00 9.1192e-09
1010.25 9.0569e-09
1010.50 2.7748e-09
1010.75 3.3200e-10
1011.00 5.6816e-09
1011.25 5.7496e-09
1011.50 4.4296e-09
1011.75 1.1306e-08
1012.00 1.5680e-08
1012.25 8.5776e-09
1012.50 2.4320e-10
1012.75 -2.1117e-10
1013.00 2.0275e-09
1013.25 9.0396e-09
1013.50 1.8161e-08
1013.75 1.5735e-08
1014.00 9.3495e-09
1014.25 5.2852e-10
1014.50 -4.8364e-09
1014.75 6.2216e-09
1015.00 1.7431e-08
1015.25 3.9871e-09
1015.50 -9.0217e-09
1015.75 -6.0877e-09
1016.00 -3.9888e-09
1016.25 -7.7652e-09
1016.50 -1.7577e-08
1016.75 -1.8365e-08
1017.00 -4.3076e-09
1017.25 -3.0340e-09
1017.50 -9.9339e-09
1017.75 -1.7244e-09
1018.00 3.0699e-10
1018.25 -1.0003e-08
1018.50 -1.2379e-08
1018.75 -5.7378e-09
1019.00 1.4891e-09
1019.25 9.8153e-09
1019.50 1.0356e-08
1019.75 8.4416e-09
1020.00 2.0137e-09
1020.25 -2.0177e-09
1020.50 7.3786e-09
1020.75 9.9960e-09
1021.00 -2.8950e-10
1021.25 -3.2941e-09
1021.50 3.5023e-09
1021.75 -3.1619e-09
1022.00 -5.4368e-09
1022.25 -1.1133e-09
1022.50 -3.4084e-09
1022.75 -2.9659e-10
1023.00 -1.5239e-09
1023.25 -5.8642e-09
1023.50 -1.0990e-09
1023.75 8.0128e-09
1024.00 1.6341e-08
1024.25 1.1449e-08
1024.50 1.8805e-09
1024.75 -5.7410e-09
1025.00 9.9563e-11
1025.25 1.0294e-08
1025.50 9.1856e-09
1025.75 1.6911e-08
1026.00 2.1337e-08
1026.25 1.5504e-08
1026.50 5.9631e-09
1026.75 3.3910e-09
1027.00 7.7613e-09
1027.25 6.2580e-09
1027.50 -3.2351e-09
1027.75 5.8707e-09
1028.00 2.0294e-08
1028.25 6.1637e-09
1028.50 -3.6251e-09
1028.75 8.6724e-10
1029.00 3.3972e-10
1029.25 9.5218e-10
1029.50 5.1331e-09
1029.75 3.9522e-09
1030.00 2.9692e-10
1030.25 -1.5732e-10
1030.50 2.9345e-10
1030.75 -1.4106e-09
1031.00 -2.6765e-09
1031.25 -4.5374e-09
1031.50 3.8202e-09
1031.75 7.5197e-09
1032.00 -4.9619e-09
1032.25 -9.3437e-09
1032.50 3.7993e-09
1032.75 7.6108e-09
1033.00 -4.2660e-09
1033.25 9.3681e-09
1033.50 2.1425e-08
1033.75 4.6194e-09
1034.00 -5.7793e-09
1034.25 4.2932e-09
1034.50 1.3678e-08
1034.75 8.6753e-09
1035.00 -1.3026e-10
1035.25 -2.1247e-09
1035.50 -3.9596e-09
1035.75 -4.1397e-09
1036.00 5.2631e-09
1036.25 3.0038e-09
1036.50 -8.5030e-09
1036.75 -7.0116e-09
1037.00 2.9198e-09
1037.25 2.2204e-09
1037.50 -8.5155e-12
1037.75 9.7372e-09
1038.00 1.6289e-08
1038.25 1.1172e-08
1038.50 6.2263e-09
1038.75 7.2494e-09
1039.00 1.6965e-09
1039.25 -1.7051e-09
1039.50 5.1237e-09
1039.75 3.5788e-09
1040.00 1.6549e-11
1040.25 1.2142e-08
1040.50 1.3314e-08
1040.75 2.5977e-09
1041.00 5.0097e-09
1041.25 8.4922e-09
1041.50 3.9668e-09
1041.75 -1.0090e-09
1042.00 -4.0003e-09
1042.25 1.3090e-09
1042.50 3.5757e-09
1042.75 -9.3681e-11
1043.00 5.7123e-09
1043.25 3.8338e-09
1043.50 -1.3114e-09
1043.75 -5.8509e-10
1044.00 1.0663e-10
1044.25 -8.1391e-09
1044.50 -8.8030e-09
1044.75 -5.2896e-10
1045.00 -5.2157e-09
1045.25 2.9175e-09
1045.50 2.0490e-08
1045.75 1.7251e-08
1046.00 1.0174e-08
1046.25 1.1554e-08
1046.50 1.5794e-09
1046.75 -1.0998e-08
1047.00 -1.7336e-08
1047.25 -1.3014e-08
1047.50 -3.3730e-09
1047.75 3.1684e-09
1048.00 6.0045e-09
1048.25 1.0485e-08
1048.50 1.4727e-08
1048.75 7.0189e-09
1049.00 2.4638e-09
1049.25 7.8709e-10
1049.50 -1.5160e-09
1049.75 9.8345e-10
1050.00 4.3441e-09
1050.25 -6.9892e-10
1050.50 -4.1991e-09
1050.75 5.1605e-09
1051.00 1.3121e-08
1051.25 1.6955e-08
1051.50 2.5486e-08
1051.75 3.7007e-08
1052.00 2.1799e-08
1052.25 -4.8571e-09
1052.50 -5.7621e-09
1052.75 -8.2352e-09
1053.00 -3.6087e-09
1053.25 6.8267e-09
1053.50 9.4416e-09
1053.75 6.2778e-09
1054.00 1.9572e-09
1054.25 9.1915e-09
1054.50 1.0074e-08
1054.75 5.1742e-09
1055.00 -2.0543e-09
1055.25 -2.7479e-09
1055.50 -2.1421e-09
1055.75 -1.3859e-10
1056.00 3.5687e-09
1056.25 3.9726e-09
1056.50 7.9143e-09
1056.75 5.7596e-09
1057.00 -4.6335e-09
1057.25 -2.3856e-10
1057.50 1.0680e-08
1057.75 7.5755e-09
1058.00 2.4203e-09
1058.25 -2.2981e-09
1058.50 -1.0443e-08
1058.75 -1.8746e-08
1059.00 -6.5378e-09
1059.25 3.1704e-10
1059.50 -2.3910e-09
1059.75 4.2414e-09
1060.00 8.4244e-09
1060.25 -1.9147e-09
1060.50 -3.4148e-09
1060.75 1.0761e-08
1061.00 1.1701e-08
1061.25 8.6608e-09
1061.50 3.3140e-09
1061.75 -1.2458e-10
1062.00 -4.6533e-09
1062.25 6.3848e-09
1062.50 2.2254e-08
1062.75 1.9802e-08
1063.00 7.6105e-09
1063.25 4.5073e-10
1063.50 -7.9559e-11
1063.75 1.0581e-08
1064.00 2.0860e-08
1064.25 2.6452e-09
1064.50 1.6318e-09
1064.75 7.4930e-09
1065.00 4.3234e-09
1065.25 7.1738e-09
1065.50 6.1893e-09
1065.75 4.1147e-09
1066.00 -1.1030e-09
1066.25 3.7911e-09
1066.50 1.3905e-08
1066.75 1.2497e-08
1067.00 1.0347e-08
1067.25 9.1971e-09
1067.50 -5.6152e-10
1067.75 -5.1977e-09
1068.00 -1.1265e-09
1068.25 -4.8713e-09
1068.50 -1.6787e-10
1068.75 8.0505e-09
1069.00 4.1532e-09
1069.25 1.1755e-08
1069.50 1.2763e-08
1069.75 6.2681e-09
1070.00 3.7751e-09
1070.25 -7.4893e-09
1070.50 -1.2237e-08
1070.75 2.5477e-10
1071.00 1.3068e-08
1071.25 1.5861e-08
1071.50 1.7387e-08
1071.75 1.4018e-08
1072.00 1.1544e-08
1072.25 1.6345e-08
1072.50 1.1627e-08
1072.75 -1.6494e-09
1073.00 -5.7708e-09
1073.25 -4.9174e-09
1073.50 2.3077e-10
1073.75 1.5797e-08
1074.00 1.8640e-08
1074.25 -2.3770e-09
1074.50 -6.4796e-09
1074.75 4.3325e-09
1075.00 1.0961e-08
1075.25 1.3711e-08
1075.50 -3.4657e-09
1075.75 -1.1399e-08
1076.00 -1.0790e-09
1076.25 1.0262e-10
1076.50 -8.1909e-09
1076.75 -1.3709e-08
1077.00 -1.2030e-08
1077.25 -8.7620e-09
1077.50 -1.6338e-08
1077.75 -1.9047e-08
1078.00 -6.4019e-09
1078.25 -8.1724e-09
1078.50 -5.1375e-09
1078.75 9.1016e-09
1079.00 2.6929e-09
1079.25 -2.7528e-09
1079.50 1.0904e-09
1079.75 5.3150e-09
1080.00 8.9527e-09
1080.25 1.1763e-08
1080.50 1.4587e-08
1080.75 6.8205e-09
1081.00 1.2672e-09
1081.25 -1.2506e-09
1081.50 7.6092e-10
1081.75 2.3777e-09
1082.00 -1.4376e-09
1082.25 5.1208e-09
1082.50 6.4221e-09
1082.75 4.8606e-09
1083.00 1.1334e-08
1083.25 1.2427e-08
1083.50 1.6977e-09
1083.75 2.2771e-09
1084.00 6.0296e-09
1084.25 -5.6839e-09
1084.50 -1.1233e-09
1084.75 5.9467e-09
1085.00 8.8661e-10
1085.25 2.1088e-09
1085.50 1.4715e-08
1085.75 1.5305e-08
1086.00 8.3618e-10
1086.25 4.4203e-10
1086.50 1.0065e-08
1086.75 1.2147e-08
1087.00 2.2424e-09
1087.25 4.4170e-09
1087.50 9.3889e-09
1087.75 7.7855e-09
1088.00 6.6732e-09
1088.25 1.0146e-09
1088.50 3.8557e-10
1088.75 7.0224e-09
1089.00 6.0855e-09
1089.25 9.2448e-09
1089.50 2.2635e-08
1089.75 1.5858e-08
1090.00 -3.1068e-10
1090.25 -3.5659e-09
1090.50 9.0135e-09
1090.75 1.1860e-08
1091.00 6.5555e-09
1091.25 2.7594e-09
1091.50 -6.7229e-09
1091.75 -2.8226e-09
1092.00 4.0203e-09
1092.25 3.1551e-10
1092.50 -4.8011e-09
1092.75 -1.0623e-08
1093.00 -1.6803e-08
1093.25 -1.3953e-08
1093.50 -5.4029e-09
1093.75 -1.0961e-09
1094.00 6.2624e-09
1094.25 1.1336e-08
1094.50 -2.4265e-09
1094.75 -1.1036e-08
1095.00 -8.5165e-09
1095.25 3.2411e-09
1095.50 1.2886e-08
1095.75 2.7240e-09
1096.00 2.6527e-09
1096.25 6.2332e-09
1096.50 5.2584e-09
1096.75 1.3685e-08
1097.00 2.1362e-08
1097.25 1.8051e-08
1097.50 1.6448e-08
1097.75 1.2269e-08
1098.00 3.8344e-09
1098.25 3.2340e-09
1098.50 3.1726e-09
1098.75 3.5834e-09
1099.00 3.3842e-09
1099.25 6.2121e-09
1099.50 1.1764e-09
1099.75 6.3557e-10
1100.00 4.2498e-09
1100.25 7.4796e-10
1100.50 9.0508e-09
1100.75 2.0500e-08
1101.00 2.4669e-08
1101.25 1.8252e-08
1101.50 4.2046e-09
1101.75 -8.7876e-09
1102.00 -8.1474e-09
1102.25 -3.0512e-09
1102.50 -3.1992e-09
1102.75 -2.7399e-09
1103.00 -1.6125e-10
1103.25 5.2567e-09
1103.50 1.3575e-08
1103.75 1.5735e-08
1104.00 8.1620e-09
1104.25 3.9415e-09
1104.50 2.4863e-09
1104.75 -6.7205e-09
1105.00 -7.9422e-09
1105.25 4.0126e-09
1105.50 6.4257e-09
1105.75 8.0462e-09
1106.00 8.3949e-09
1106.25 -1.2088e-08
1106.50 -2.3310e-08
1106.75 -3.8679e-09
1107.00 9.3901e-09
1107.25 1.1213e-08
1107.50 2.5180e-09
1107.75 -1.0625e-08
1108.00 -1.4253e-08
1108.25 -2.8332e-09
1108.50 5.8206e-09
1108.75 -1.0843e-09
1109.00 4.8901e-09
1109.25 1.1392e-08
1109.50 8.2123e-09
1109.75 -3.3125e-09
1110.00 -1.3294e-08
1110.25 -9.8338e-09
1110.50 -1.7462e-10
1110.75 1.5433e-08
1111.00 2.0098e-08
1111.25 1.0066e-08
1111.50 1.5138e-08
1111.75 1.9935e-08
1112.00 5.2109e-09
1112.25 -9.1841e-09
1112.50 -4.3480e-09
1112.75 -5.7666e-09
1113.00 -1.0683e-08
1113.25 6.4455e-09
1113.50 1.7219e-08
1113.75 1.3850e-08
1114.00 2.3939e-09
1114.25 3.7641e-09
1114.50 4.4907e-09
1114.75 -1.3354e-08
1115.00 -2.6675e-08
1115.25 -1.3245e-08
1115.50 8.7875e-09
1115.75 5.1221e-10
1116.00 -4.3852e-09
1116.25 -4.5291e-09
1116.50 -1.3890e-08
1116.75 -1.1299e-08
1117.00 1.5273e-09
1117.25 2.4316e-08
1117.50 1.7976e-08
1117.75 -6.1237e-09
1118.00 -1.3462e-08
1118.25 -1.3110e-08
1118.50 -1.0974e-08
1118.75 -4.7217e-09
1119.00 5.7519e-09
1119.25 2.3012e-08
1119.50 1.9728e-08
1119.75 -8.8184e-09
1120.00 -4.4663e-09
1120.25 1.4536e-08
1120.50 3.4027e-08
1120.75 4.8765e-08
1121.00 3.1478e-08
1121.25 -2.8234e-09
1121.50 -1.2367e-08
1121.75 -3.2947e-08
1122.00 -3.6483e-08
1122.25 -1.5825e-09
1122.50 2.3407e-08
1122.75 2.0549e-08
1123.00 7.2427e-09
1123.25 6.8783e-10
1123.50 -1.6081e-08
1123.75 1.3563e-09
1124.00 7.0508e-09
1124.25 -6.5555e-10
1124.50 -9.1479e-09
1124.75 3.1416e-09
1125.00 1.2928e-08
