# Spectrum from Mathe et al. 2019
2221
250
 570.00 4.8025e-08
 570.25 6.4977e-08
 570.50 5.9777e-08
 570.75 3.4953e-08
 571.00 1.1261e-08
 571.25 1.8140e-08
 571.50 2.3476e-08
 571.75 3.2596e-08
 572.00 3.8866e-08
 572.25 6.1565e-09
 572.50 -1.1255e-08
 572.75 -2.3641e-08
 573.00 -8.6202e-08
 573.25 -1.6778e-07
 573.50 -2.0712e-07
 573.75 -9.8041e-09
 574.00 1.7159e-07
 574.25 1.2664e-07
 574.50 9.5721e-08
 574.75 8.4527e-08
 575.00 8.8855e-08
 575.25 1.0288e-07
 575.50 8.3196e-08
 575.75 5.6706e-08
 576.00 3.7707e-08
 576.25 2.2362e-08
 576.50 2.7351e-08
 576.75 2.7143e-08
 577.00 1.5111e-08
 577.25 9.3436e-09
 577.50 1.2376e-08
 577.75 2.4337e-08
 578.00 2.4202e-08
 578.25 1.4422e-08
 578.50 1.2186e-08
 578.75 2.0121e-08
 579.00 1.7767e-08
 579.25 2.2649e-08
 579.50 2.4330e-08
 579.75 2.0770e-08
 580.00 1.5630e-08
 580.25 1.2804e-08
 580.50 2.3529e-08
 580.75 2.2451e-08
 581.00 2.4618e-08
 581.25 2.6370e-08
 581.50 2.1250e-08
 581.75 2.4019e-08
 582.00 2.4247e-08
 582.25 1.8733e-08
 582.50 1.5841e-08
 582.75 1.3416e-08
 583.00 2.4860e-09
 583.25 4.5278e-09
 583.50 1.4751e-08
 583.75 1.6088e-08
 584.00 1.7781e-08
 584.25 1.8912e-08
 584.50 1.7404e-08
 584.75 1.2703e-08
 585.00 7.9174e-09
 585.25 1.0927e-08
 585.50 1.7973e-08
 585.75 1.2279e-08
 586.00 1.1060e-08
 586.25 1.9728e-08
 586.50 1.4345e-08
 586.75 3.5084e-10
 587.00 1.4256e-09
 587.25 8.0303e-09
 587.50 1.5881e-08
 587.75 2.5887e-08
 588.00 2.5587e-08
 588.25 1.4828e-08
 588.50 6.3850e-09
 588.75 1.3177e-08
 589.00 1.6727e-08
 589.25 1.9628e-08
 589.50 2.2860e-08
 589.75 1.7179e-08
 590.00 1.1087e-08
 590.25 1.1581e-08
 590.50 1.6003e-08
 590.75 1.5930e-08
 591.00 9.7434e-09
 591.25 6.5676e-09
 591.50 9.1514e-09
 591.75 9.3302e-09
 592.00 7.1253e-09
 592.25 9.2428e-09
 592.50 1.9197e-08
 592.75 2.3461e-08
 593.00 1.6352e-08
 593.25 1.4496e-08
 593.50 1.4138e-08
 593.75 8.0384e-09
 594.00 8.2806e-09
 594.25 1.2652e-08
 594.50 1.5330e-08
 594.75 1.5557e-08
 595.00 1.4536e-08
 595.25 1.2678e-08
 595.50 1.4716e-08
 595.75 1.5796e-08
 596.00 1.6071e-08
 596.25 1.8779e-08
 596.50 1.6470e-08
 596.75 1.4949e-08
 597.00 1.4007e-08
 597.25 1.2484e-08
 597.50 1.9082e-08
 597.75 2.0579e-08
 598.00 1.2377e-08
 598.25 1.1586e-08
 598.50 1.6158e-08
 598.75 2.2605e-08
 599.00 2.2520e-08
 599.25 1.8361e-08
 599.50 2.0070e-08
 599.75 1.8248e-08
 600.00 1.3646e-08
 600.25 1.2290e-08
 600.50 1.0648e-08
 600.75 1.1570e-08
 601.00 1.3658e-08
 601.25 1.7260e-08
 601.50 2.0552e-08
 601.75 2.1824e-08
 602.00 1.8595e-08
 602.25 1.3093e-08
 602.50 1.1295e-08
 602.75 8.4666e-09
 603.00 7.5600e-09
 603.25 1.1287e-08
 603.50 1.5492e-08
 603.75 1.2703e-08
 604.00 1.2699e-08
 604.25 1.5330e-08
 604.50 1.3595e-08
 604.75 1.1613e-08
 605.00 1.4347e-08
 605.25 1.6807e-08
 605.50 1.3524e-08
 605.75 1.1068e-08
 606.00 1.1867e-08
 606.25 1.1072e-08
 606.50 1.0466e-08
 606.75 1.2795e-08
 607.00 1.3884e-08
 607.25 1.4491e-08
 607.50 1.8549e-08
 607.75 2.1105e-08
 608.00 1.3589e-08
 608.25 1.4257e-08
 608.50 2.0858e-08
 608.75 1.9338e-08
 609.00 1.9381e-08
 609.25 2.0953e-08
 609.50 1.6741e-08
 609.75 1.0512e-08
 610.00 8.7614e-09
 610.25 1.2389e-08
 610.50 1.4213e-08
 610.75 1.6044e-08
 611.00 1.5015e-08
 611.25 1.3312e-08
 611.50 1.8142e-08
 611.75 1.8565e-08
 612.00 1.7588e-08
 612.25 1.8230e-08
 612.50 1.8490e-08
 612.75 1.4417e-08
 613.00 1.1788e-08
 613.25 1.5158e-08
 613.50 1.5723e-08
 613.75 1.2135e-08
 614.00 1.4373e-08
 614.25 2.1688e-08
 614.50 2.2549e-08
 614.75 1.7891e-08
 615.00 1.6171e-08
 615.25 1.7388e-08
 615.50 1.8475e-08
 615.75 1.7437e-08
 616.00 1.8422e-08
 616.25 1.6514e-08
 616.50 1.5557e-08
 616.75 2.0227e-08
 617.00 2.4077e-08
 617.25 2.6546e-08
 617.50 2.1365e-08
 617.75 1.8971e-08
 618.00 2.2216e-08
 618.25 2.3621e-08
 618.50 1.8684e-08
 618.75 1.9921e-08
 619.00 2.1611e-08
 619.25 2.3400e-08
 619.50 2.3455e-08
 619.75 2.2277e-08
 620.00 2.2210e-08
 620.25 1.7261e-08
 620.50 2.1837e-08
 620.75 2.2854e-08
 621.00 2.1799e-08
 621.25 2.6337e-08
 621.50 3.8242e-08
 621.75 3.5707e-08
 622.00 2.2623e-08
 622.25 2.1141e-08
 622.50 2.1021e-08
 622.75 1.7310e-08
 623.00 1.4094e-08
 623.25 1.7176e-08
 623.50 1.6695e-08
 623.75 1.8553e-08
 624.00 2.5071e-08
 624.25 2.3066e-08
 624.50 1.8685e-08
 624.75 1.5274e-08
 625.00 1.8782e-08
 625.25 2.3877e-08
 625.50 2.6042e-08
 625.75 2.5094e-08
 626.00 2.2855e-08
 626.25 2.4730e-08
 626.50 2.4133e-08
 626.75 3.2466e-08
 627.00 3.2528e-08
 627.25 2.8173e-08
 627.50 2.9781e-08
 627.75 7.3648e-08
 628.00 1.1664e-07
 628.25 8.4488e-08
 628.50 4.9218e-08
 628.75 3.6456e-08
 629.00 3.3582e-08
 629.25 3.0910e-08
 629.50 3.5273e-08
 629.75 3.4208e-08
 630.00 2.6007e-08
 630.25 2.6212e-08
 630.50 2.6404e-08
 630.75 3.3644e-08
 631.00 3.4162e-08
 631.25 4.2668e-08
 631.50 4.3744e-08
 631.75 3.8534e-08
 632.00 3.6635e-08
 632.25 3.1341e-08
 632.50 3.7293e-08
 632.75 3.9513e-08
 633.00 5.1342e-08
 633.25 5.1739e-08
 633.50 4.6656e-08
 633.75 4.7578e-08
 634.00 4.6163e-08
 634.25 4.5300e-08
 634.50 4.3226e-08
 634.75 5.0774e-08
 635.00 4.3290e-08
 635.25 3.8835e-08
 635.50 3.4881e-08
 635.75 3.1697e-08
 636.00 3.3782e-08
 636.25 3.1196e-08
 636.50 3.1113e-08
 636.75 2.8481e-08
 637.00 2.1183e-08
 637.25 1.4120e-08
 637.50 1.7163e-08
 637.75 2.0286e-08
 638.00 2.5170e-08
 638.25 2.2805e-08
 638.50 2.1458e-08
 638.75 2.7757e-08
 639.00 2.5973e-08
 639.25 2.2480e-08
 639.50 2.0589e-08
 639.75 2.2040e-08
 640.00 2.5893e-08
 640.25 2.4534e-08
 640.50 1.7843e-08
 640.75 1.4671e-08
 641.00 1.8027e-08
 641.25 1.6814e-08
 641.50 1.6841e-08
 641.75 2.0035e-08
 642.00 1.8686e-08
 642.25 1.7695e-08
 642.50 1.6844e-08
 642.75 1.8155e-08
 643.00 2.3626e-08
 643.25 2.7382e-08
 643.50 2.2455e-08
 643.75 2.0058e-08
 644.00 2.1705e-08
 644.25 2.2253e-08
 644.50 2.2475e-08
 644.75 2.1179e-08
 645.00 2.1233e-08
 645.25 2.2705e-08
 645.50 2.3901e-08
 645.75 2.3799e-08
 646.00 2.3611e-08
 646.25 1.9474e-08
 646.50 1.2428e-08
 646.75 1.6165e-08
 647.00 2.3237e-08
 647.25 2.3900e-08
 647.50 2.2488e-08
 647.75 1.8138e-08
 648.00 2.0815e-08
 648.25 2.1391e-08
 648.50 1.7003e-08
 648.75 1.9811e-08
 649.00 2.3676e-08
 649.25 2.3349e-08
 649.50 2.1763e-08
 649.75 2.2200e-08
 650.00 2.1778e-08
 650.25 2.4755e-08
 650.50 2.8605e-08
 650.75 2.6873e-08
 651.00 2.0650e-08
 651.25 1.3420e-08
 651.50 1.1265e-08
 651.75 1.5265e-08
 652.00 2.1576e-08
 652.25 2.4309e-08
 652.50 2.2991e-08
 652.75 2.0499e-08
 653.00 2.0899e-08
 653.25 1.8884e-08
 653.50 1.8231e-08
 653.75 2.2003e-08
 654.00 1.7930e-08
 654.25 1.0977e-08
 654.50 1.3114e-08
 654.75 1.7031e-08
 655.00 1.5321e-08
 655.25 1.5123e-08
 655.50 1.7878e-08
 655.75 2.6220e-08
 656.00 2.8101e-08
 656.25 2.3183e-08
 656.50 1.9089e-08
 656.75 1.3395e-08
 657.00 8.7906e-09
 657.25 5.0707e-09
 657.50 6.0396e-09
 657.75 1.2889e-08
 658.00 1.9149e-08
 658.25 1.8845e-08
 658.50 2.0964e-08
 658.75 2.7420e-08
 659.00 2.6622e-08
 659.25 2.3623e-08
 659.50 2.4049e-08
 659.75 2.1212e-08
 660.00 1.6515e-08
 660.25 1.1085e-08
 660.50 8.4197e-09
 660.75 1.2633e-08
 661.00 2.7519e-08
 661.25 3.0955e-08
 661.50 2.7576e-08
 661.75 2.7912e-08
 662.00 1.8036e-08
 662.25 1.7258e-08
 662.50 2.3856e-08
 662.75 2.2605e-08
 663.00 1.8854e-08
 663.25 2.3303e-08
 663.50 2.2967e-08
 663.75 1.6984e-08
 664.00 1.6133e-08
 664.25 1.8967e-08
 664.50 2.1414e-08
 664.75 2.0756e-08
 665.00 1.8064e-08
 665.25 2.0350e-08
 665.50 2.8196e-08
 665.75 2.4386e-08
 666.00 1.3308e-08
 666.25 1.3825e-08
 666.50 1.9067e-08
 666.75 2.0682e-08
 667.00 1.8605e-08
 667.25 3.3248e-08
 667.50 6.8927e-08
 667.75 7.7080e-08
 668.00 5.6816e-08
 668.25 3.6606e-08
 668.50 2.5590e-08
 668.75 1.9453e-08
 669.00 1.6703e-08
 669.25 1.4112e-08
 669.50 1.4685e-08
 669.75 1.7308e-08
 670.00 1.9885e-08
 670.25 2.9116e-08
 670.50 3.3183e-08
 670.75 2.6023e-08
 671.00 1.5436e-08
 671.25 1.3438e-08
 671.50 1.5022e-08
 671.75 1.9460e-08
 672.00 2.1372e-08
 672.25 2.0140e-08
 672.50 2.6973e-08
 672.75 3.1711e-08
 673.00 2.6597e-08
 673.25 2.5329e-08
 673.50 2.7646e-08
 673.75 2.1475e-08
 674.00 1.2202e-08
 674.25 1.8283e-08
 674.50 2.2154e-08
 674.75 2.0567e-08
 675.00 2.5138e-08
 675.25 2.3052e-08
 675.50 1.8156e-08
 675.75 1.6941e-08
 676.00 2.0016e-08
 676.25 1.9415e-08
 676.50 2.1843e-08
 676.75 1.7415e-08
 677.00 1.6869e-08
 677.25 2.8054e-08
 677.50 3.7136e-08
 677.75 3.8361e-08
 678.00 3.0539e-08
 678.25 2.5608e-08
 678.50 2.0412e-08
 678.75 1.8626e-08
 679.00 2.3356e-08
 679.25 2.9768e-08
 679.50 3.3444e-08
 679.75 3.2037e-08
 680.00 2.6580e-08
 680.25 1.9242e-08
 680.50 1.9195e-08
 680.75 2.7183e-08
 681.00 2.5513e-08
 681.25 1.8067e-08
 681.50 1.8379e-08
 681.75 2.7636e-08
 682.00 3.9435e-08
 682.25 4.5596e-08
 682.50 3.1198e-08
 682.75 1.6021e-08
 683.00 1.6488e-08
 683.25 1.7384e-08
 683.50 1.6099e-08
 683.75 1.9234e-08
 684.00 2.8366e-08
 684.25 4.1973e-08
 684.50 4.8707e-08
 684.75 2.9561e-08
 685.00 1.9530e-08
 685.25 2.7361e-08
 685.50 3.1351e-08
 685.75 2.2544e-08
 686.00 1.7999e-08
 686.25 2.1011e-08
 686.50 3.1359e-08
 686.75 4.3579e-08
 687.00 3.0520e-08
 687.25 1.6108e-08
 687.50 1.8951e-08
 687.75 2.8904e-08
 688.00 2.9541e-08
 688.25 3.2122e-08
 688.50 2.9790e-08
 688.75 2.6782e-08
 689.00 4.0568e-08
 689.25 3.5959e-08
 689.50 1.7351e-08
 689.75 1.4448e-08
 690.00 1.5258e-08
 690.25 1.5709e-08
 690.50 1.6160e-08
 690.75 2.2892e-08
 691.00 3.8051e-08
 691.25 5.5276e-08
 691.50 5.5284e-08
 691.75 2.9692e-08
 692.00 1.8347e-08
 692.25 2.1714e-08
 692.50 2.5323e-08
 692.75 2.3629e-08
 693.00 2.4013e-08
 693.25 2.8510e-08
 693.50 3.5795e-08
 693.75 5.3356e-08
 694.00 4.7886e-08
 694.25 3.2739e-08
 694.50 3.0131e-08
 694.75 2.5234e-08
 695.00 2.3411e-08
 695.25 2.6396e-08
 695.50 3.8710e-08
 695.75 4.1963e-08
 696.00 4.4829e-08
 696.25 4.6423e-08
 696.50 3.5913e-08
 696.75 4.0954e-08
 697.00 4.5768e-08
 697.25 3.8636e-08
 697.50 2.5256e-08
 697.75 2.7106e-08
 698.00 3.3426e-08
 698.25 4.2867e-08
 698.50 5.8009e-08
 698.75 4.0958e-08
 699.00 2.8735e-08
 699.25 4.1440e-08
 699.50 4.0046e-08
 699.75 2.8758e-08
 700.00 3.9231e-08
 700.25 5.1334e-08
 700.50 4.4557e-08
 700.75 4.5468e-08
 701.00 3.8529e-08
 701.25 3.2717e-08
 701.50 3.7273e-08
 701.75 2.8982e-08
 702.00 2.4071e-08
 702.25 2.8534e-08
 702.50 3.8694e-08
 702.75 4.2219e-08
 703.00 6.1219e-08
 703.25 7.4398e-08
 703.50 4.3034e-08
 703.75 1.6463e-08
 704.00 1.2812e-08
 704.25 1.7675e-08
 704.50 2.2673e-08
 704.75 2.6184e-08
 705.00 3.4360e-08
 705.25 4.5314e-08
 705.50 5.1428e-08
 705.75 5.2975e-08
 706.00 5.6979e-08
 706.25 5.0263e-08
 706.50 3.5336e-08
 706.75 2.8461e-08
 707.00 2.6511e-08
 707.25 3.1432e-08
 707.50 4.2345e-08
 707.75 5.8854e-08
 708.00 6.6472e-08
 708.25 4.3894e-08
 708.50 2.0813e-08
 708.75 1.5905e-08
 709.00 1.8978e-08
 709.25 2.6545e-08
 709.50 2.8070e-08
 709.75 3.6437e-08
 710.00 4.5224e-08
 710.25 5.7280e-08
 710.50 5.4400e-08
 710.75 3.4702e-08
 711.00 3.7379e-08
 711.25 4.7004e-08
 711.50 5.0272e-08
 711.75 6.0853e-08
 712.00 1.0793e-07
 712.25 1.3260e-07
 712.50 1.2360e-07
 712.75 1.1008e-07
 713.00 7.1601e-08
 713.25 4.8405e-08
 713.50 4.5178e-08
 713.75 4.8770e-08
 714.00 5.3037e-08
 714.25 6.2042e-08
 714.50 8.3706e-08
 714.75 8.5211e-08
 715.00 8.0452e-08
 715.25 6.4323e-08
 715.50 4.4103e-08
 715.75 3.5175e-08
 716.00 5.0233e-08
 716.25 1.0646e-07
 716.50 9.7640e-08
 716.75 4.7693e-08
 717.00 4.3234e-08
 717.25 7.0336e-08
 717.50 6.8293e-08
 717.75 4.0141e-08
 718.00 3.7045e-08
 718.25 2.9656e-08
 718.50 2.4580e-08
 718.75 2.6861e-08
 719.00 3.8089e-08
 719.25 4.5354e-08
 719.50 5.8943e-08
 719.75 1.0623e-07
 720.00 1.0613e-07
 720.25 4.8203e-08
 720.50 2.6065e-08
 720.75 3.0311e-08
 721.00 3.4431e-08
 721.25 3.6588e-08
 721.50 3.3298e-08
 721.75 3.9672e-08
 722.00 5.4757e-08
 722.25 4.2992e-08
 722.50 1.8953e-08
 722.75 2.0732e-08
 723.00 2.6898e-08
 723.25 3.0361e-08
 723.50 3.2700e-08
 723.75 3.8834e-08
 724.00 3.6734e-08
 724.25 3.8752e-08
 724.50 3.6960e-08
 724.75 2.6717e-08
 725.00 2.4105e-08
 725.25 2.8225e-08
 725.50 3.2899e-08
 725.75 3.6738e-08
 726.00 4.1435e-08
 726.25 3.2001e-08
 726.50 3.1069e-08
 726.75 3.6886e-08
 727.00 3.6424e-08
 727.25 3.2193e-08
 727.50 2.9992e-08
 727.75 3.1515e-08
 728.00 5.6835e-08
 728.25 1.0747e-07
 728.50 1.2170e-07
 728.75 1.2114e-07
 729.00 2.5604e-07
 729.25 4.4673e-07
 729.50 4.3285e-07
 729.75 3.0460e-07
 730.00 2.2352e-07
 730.25 1.8034e-07
 730.50 1.4748e-07
 730.75 1.3364e-07
 731.00 1.9027e-07
 731.25 2.0133e-07
 731.50 1.4349e-07
 731.75 1.0843e-07
 732.00 8.5731e-08
 732.25 7.4266e-08
 732.50 7.2835e-08
 732.75 7.3433e-08
 733.00 5.9300e-08
 733.25 4.6742e-08
 733.50 4.8596e-08
 733.75 7.3894e-08
 734.00 7.7234e-08
 734.25 4.7848e-08
 734.50 3.5114e-08
 734.75 3.6679e-08
 735.00 4.3097e-08
 735.25 3.5976e-08
 735.50 3.8260e-08
 735.75 4.8998e-08
 736.00 5.9412e-08
 736.25 6.6699e-08
 736.50 4.7685e-08
 736.75 3.4543e-08
 737.00 3.0639e-08
 737.25 3.2787e-08
 737.50 4.4111e-08
 737.75 4.5527e-08
 738.00 4.9698e-08
 738.25 6.0683e-08
 738.50 8.5890e-08
 738.75 7.4633e-08
 739.00 4.4641e-08
 739.25 4.4101e-08
 739.50 4.3289e-08
 739.75 4.1670e-08
 740.00 2.8221e-08
 740.25 3.3924e-08
 740.50 5.6575e-08
 740.75 7.1451e-08
 741.00 6.7371e-08
 741.25 3.9852e-08
 741.50 3.1034e-08
 741.75 3.7674e-08
 742.00 4.2625e-08
 742.25 3.3947e-08
 742.50 2.3313e-08
 742.75 3.8313e-08
 743.00 6.7011e-08
 743.25 8.9122e-08
 743.50 6.2829e-08
 743.75 3.1494e-08
 744.00 3.4581e-08
 744.25 4.2037e-08
 744.50 4.2988e-08
 744.75 3.4150e-08
 745.00 3.9944e-08
 745.25 5.8941e-08
 745.50 7.7894e-08
 745.75 6.5099e-08
 746.00 3.9359e-08
 746.25 4.0199e-08
 746.50 4.9767e-08
 746.75 4.8915e-08
 747.00 4.3897e-08
 747.25 4.9912e-08
 747.50 6.6194e-08
 747.75 1.0247e-07
 748.00 1.2838e-07
 748.25 9.9348e-08
 748.50 6.2148e-08
 748.75 5.7384e-08
 749.00 5.4210e-08
 749.25 3.8793e-08
 749.50 3.0635e-08
 749.75 3.5704e-08
 750.00 5.6685e-08
 750.25 8.4316e-08
 750.50 6.7827e-08
 750.75 4.1980e-08
 751.00 4.2425e-08
 751.25 4.5407e-08
 751.50 3.9407e-08
 751.75 3.0660e-08
 752.00 3.6787e-08
 752.25 4.4627e-08
 752.50 6.8956e-08
 752.75 7.4423e-08
 753.00 5.0433e-08
 753.25 5.5909e-08
 753.50 5.6245e-08
 753.75 4.7983e-08
 754.00 4.5957e-08
 754.25 3.4995e-08
 754.50 3.9890e-08
 754.75 5.7726e-08
 755.00 6.8899e-08
 755.25 5.2023e-08
 755.50 3.8650e-08
 755.75 4.2778e-08
 756.00 4.3994e-08
 756.25 4.9697e-08
 756.50 4.5060e-08
 756.75 4.2711e-08
 757.00 5.2712e-08
 757.25 7.3530e-08
 757.50 7.3206e-08
 757.75 4.9774e-08
 758.00 4.7119e-08
 758.25 4.2276e-08
 758.50 3.2252e-08
 758.75 2.7716e-08
 759.00 3.2298e-08
 759.25 4.2336e-08
 759.50 5.4372e-08
 759.75 6.3598e-08
 760.00 5.4273e-08
 760.25 5.7315e-08
 760.50 5.5271e-08
 760.75 4.1593e-08
 761.00 3.8186e-08
 761.25 4.3936e-08
 761.50 4.4317e-08
 761.75 4.9287e-08
 762.00 6.9709e-08
 762.25 5.8054e-08
 762.50 3.8484e-08
 762.75 3.5568e-08
 763.00 3.2484e-08
 763.25 3.4450e-08
 763.50 3.5948e-08
 763.75 3.5105e-08
 764.00 3.8489e-08
 764.25 4.1504e-08
 764.50 3.8926e-08
 764.75 -2.8028e-09
 765.00 -2.6037e-08
 765.25 3.3481e-08
 765.50 7.1341e-08
 765.75 6.7712e-08
 766.00 6.5563e-08
 766.25 6.0892e-08
 766.50 6.8772e-08
 766.75 7.4827e-08
 767.00 5.9584e-08
 767.25 4.8213e-08
 767.50 4.4448e-08
 767.75 4.2164e-08
 768.00 4.6984e-08
 768.25 4.3645e-08
 768.50 4.1056e-08
 768.75 4.7460e-08
 769.00 5.7426e-08
 769.25 5.4753e-08
 769.50 4.1591e-08
 769.75 3.4182e-08
 770.00 3.6357e-08
 770.25 4.3898e-08
 770.50 4.5368e-08
 770.75 5.0495e-08
 771.00 5.3692e-08
 771.25 5.9802e-08
 771.50 6.3501e-08
 771.75 5.2924e-08
 772.00 4.0559e-08
 772.25 3.5139e-08
 772.50 3.8463e-08
 772.75 3.6679e-08
 773.00 3.6031e-08
 773.25 3.8674e-08
 773.50 4.0532e-08
 773.75 4.6545e-08
 774.00 4.7390e-08
 774.25 4.1930e-08
 774.50 3.8132e-08
 774.75 3.6906e-08
 775.00 4.0293e-08
 775.25 4.0100e-08
 775.50 4.2040e-08
 775.75 5.1923e-08
 776.00 6.0994e-08
 776.25 5.7398e-08
 776.50 4.5052e-08
 776.75 4.8408e-08
 777.00 4.7205e-08
 777.25 3.7093e-08
 777.50 3.7692e-08
 777.75 4.3628e-08
 778.00 4.7476e-08
 778.25 5.5758e-08
 778.50 5.9179e-08
 778.75 4.4038e-08
 779.00 4.0010e-08
 779.25 4.6282e-08
 779.50 4.6313e-08
 779.75 4.4224e-08
 780.00 4.2697e-08
 780.25 4.4961e-08
 780.50 5.4754e-08
 780.75 6.5262e-08
 781.00 5.4429e-08
 781.25 4.1897e-08
 781.50 4.0204e-08
 781.75 4.1651e-08
 782.00 4.8698e-08
 782.25 4.9477e-08
 782.50 4.8101e-08
 782.75 5.0917e-08
 783.00 5.3053e-08
 783.25 5.4903e-08
 783.50 4.9010e-08
 783.75 3.6657e-08
 784.00 3.5365e-08
 784.25 4.2881e-08
 784.50 4.7169e-08
 784.75 4.4960e-08
 785.00 4.6169e-08
 785.25 5.1202e-08
 785.50 5.6828e-08
 785.75 6.1479e-08
 786.00 5.8353e-08
 786.25 5.2821e-08
 786.50 5.3717e-08
 786.75 5.3125e-08
 787.00 5.1623e-08
 787.25 5.6181e-08
 787.50 5.6859e-08
 787.75 5.7823e-08
 788.00 5.6932e-08
 788.25 5.1015e-08
 788.50 4.2254e-08
 788.75 3.4685e-08
 789.00 3.8200e-08
 789.25 5.1338e-08
 789.50 5.5581e-08
 789.75 5.1642e-08
 790.00 5.1562e-08
 790.25 5.0558e-08
 790.50 4.9851e-08
 790.75 5.2641e-08
 791.00 5.1863e-08
 791.25 5.3147e-08
 791.50 6.4615e-08
 791.75 6.3437e-08
 792.00 5.5112e-08
 792.25 5.5453e-08
 792.50 4.8267e-08
 792.75 4.7565e-08
 793.00 6.1620e-08
 793.25 6.4458e-08
 793.50 6.1783e-08
 793.75 6.0017e-08
 794.00 6.7142e-08
 794.25 7.1598e-08
 794.50 6.3464e-08
 794.75 5.9966e-08
 795.00 5.2886e-08
 795.25 4.9252e-08
 795.50 5.5508e-08
 795.75 6.0268e-08
 796.00 6.0130e-08
 796.25 5.5739e-08
 796.50 5.4763e-08
 796.75 6.2091e-08
 797.00 6.4429e-08
 797.25 5.5276e-08
 797.50 4.2928e-08
 797.75 4.4307e-08
 798.00 5.3386e-08
 798.25 6.3805e-08
 798.50 8.0205e-08
 798.75 9.3808e-08
 799.00 9.9636e-08
 799.25 8.7505e-08
 799.50 6.1932e-08
 799.75 5.5548e-08
 800.00 4.8815e-08
 800.25 3.9203e-08
 800.50 5.6505e-08
 800.75 6.9833e-08
 801.00 8.0462e-08
 801.25 1.0024e-07
 801.50 1.0390e-07
 801.75 7.8458e-08
 802.00 5.9715e-08
 802.25 6.1773e-08
 802.50 6.2555e-08
 802.75 4.8129e-08
 803.00 3.5361e-08
 803.25 5.4172e-08
 803.50 8.7961e-08
 803.75 1.1279e-07
 804.00 1.2035e-07
 804.25 8.6495e-08
 804.50 4.7312e-08
 804.75 5.6642e-08
 805.00 6.9020e-08
 805.25 6.2816e-08
 805.50 4.7461e-08
 805.75 4.7829e-08
 806.00 8.3842e-08
 806.25 1.3681e-07
 806.50 1.6969e-07
 806.75 1.2725e-07
 807.00 5.2023e-08
 807.25 4.6163e-08
 807.50 7.6407e-08
 807.75 7.4549e-08
 808.00 4.8588e-08
 808.25 4.2327e-08
 808.50 6.6877e-08
 808.75 1.1279e-07
 809.00 1.6507e-07
 809.25 1.3894e-07
 809.50 5.8049e-08
 809.75 2.3144e-08
 810.00 4.2821e-08
 810.25 7.9564e-08
 810.50 8.0355e-08
 810.75 4.7087e-08
 811.00 5.0681e-08
 811.25 8.6537e-08
 811.50 1.5128e-07
 811.75 1.8430e-07
 812.00 1.1077e-07
 812.25 4.2988e-08
 812.50 3.3251e-08
 812.75 5.1355e-08
 813.00 8.6767e-08
 813.25 7.5090e-08
 813.50 5.0293e-08
 813.75 7.0893e-08
 814.00 1.1786e-07
 814.25 1.8771e-07
 814.50 1.6729e-07
 814.75 7.0328e-08
 815.00 2.9504e-08
 815.25 3.1350e-08
 815.50 5.9304e-08
 815.75 8.1037e-08
 816.00 5.9660e-08
 816.25 6.1792e-08
 816.50 9.3044e-08
 816.75 1.5988e-07
 817.00 2.0490e-07
 817.25 1.2264e-07
 817.50 3.6855e-08
 817.75 2.4999e-08
 818.00 3.9136e-08
 818.25 6.6896e-08
 818.50 8.3078e-08
 818.75 7.3935e-08
 819.00 7.8203e-08
 819.25 1.0952e-07
 819.50 1.7624e-07
 819.75 1.7276e-07
 820.00 7.8676e-08
 820.25 2.7732e-08
 820.50 2.8078e-08
 820.75 3.9302e-08
 821.00 5.9953e-08
 821.25 6.6013e-08
 821.50 5.1150e-08
 821.75 4.6292e-08
 822.00 1.1777e-07
 822.25 2.4333e-07
 822.50 1.8927e-07
 822.75 5.0467e-08
 823.00 1.4363e-08
 823.25 2.9377e-08
 823.50 6.2706e-08
 823.75 8.9385e-08
 824.00 9.2675e-08
 824.25 9.3661e-08
 824.50 1.2150e-07
 824.75 1.8950e-07
 825.00 2.0533e-07
 825.25 1.0348e-07
 825.50 3.1843e-08
 825.75 1.3666e-08
 826.00 2.5142e-08
 826.25 7.1361e-08
 826.50 8.7035e-08
 826.75 7.6472e-08
 827.00 9.1114e-08
 827.25 1.4108e-07
 827.50 1.9510e-07
 827.75 1.3941e-07
 828.00 3.8851e-08
 828.25 1.9981e-08
 828.50 2.9717e-08
 828.75 6.1557e-08
 829.00 8.0160e-08
 829.25 6.5884e-08
 829.50 7.2174e-08
 829.75 1.1085e-07
 830.00 1.7779e-07
 830.25 1.9553e-07
 830.50 8.7182e-08
 830.75 1.6340e-08
 831.00 2.1579e-08
 831.25 4.7235e-08
 831.50 8.2117e-08
 831.75 6.5281e-08
 832.00 4.5126e-08
 832.25 5.8449e-08
 832.50 1.1052e-07
 832.75 1.9996e-07
 833.00 1.8303e-07
 833.25 6.5692e-08
 833.50 2.2212e-08
 833.75 3.0849e-08
 834.00 6.2208e-08
 834.25 6.9801e-08
 834.50 5.5995e-08
 834.75 7.0334e-08
 835.00 1.0420e-07
 835.25 1.5794e-07
 835.50 1.8375e-07
 835.75 1.0440e-07
 836.00 2.0415e-08
 836.25 3.2219e-08
 836.50 6.4029e-08
 836.75 8.4573e-08
 837.00 6.5484e-08
 837.25 3.0958e-08
 837.50 3.9955e-08
 837.75 1.0583e-07
 838.00 1.6825e-07
 838.25 1.5856e-07
 838.50 8.5339e-08
 838.75 3.3588e-08
 839.00 4.3011e-08
 839.25 7.1036e-08
 839.50 6.7380e-08
 839.75 3.9446e-08
 840.00 3.6538e-08
 840.25 7.0910e-08
 840.50 1.1924e-07
 840.75 1.3502e-07
 841.00 1.1466e-07
 841.25 6.9221e-08
 841.50 4.9151e-08
 841.75 6.3681e-08
 842.00 8.4566e-08
 842.25 7.5957e-08
 842.50 3.6785e-08
 842.75 3.8214e-08
 843.00 7.0462e-08
 843.25 1.0139e-07
 843.50 1.0571e-07
 843.75 7.8500e-08
 844.00 6.0075e-08
 844.25 5.5657e-08
 844.50 6.0659e-08
 844.75 6.3689e-08
 845.00 5.2538e-08
 845.25 5.1059e-08
 845.50 6.0290e-08
 845.75 7.3225e-08
 846.00 9.5426e-08
 846.25 9.3900e-08
 846.50 8.3546e-08
 846.75 7.6316e-08
 847.00 6.2486e-08
 847.25 6.5088e-08
 847.50 5.7168e-08
 847.75 4.7498e-08
 848.00 4.8502e-08
 848.25 5.6166e-08
 848.50 7.1732e-08
 848.75 7.4240e-08
 849.00 7.1173e-08
 849.25 7.2136e-08
 849.50 6.0754e-08
 849.75 4.8043e-08
 850.00 5.7464e-08
 850.25 5.9463e-08
 850.50 4.2303e-08
 850.75 3.8141e-08
 851.00 4.9846e-08
 851.25 6.1585e-08
 851.50 6.2797e-08
 851.75 5.5983e-08
 852.00 5.5780e-08
 852.25 6.0170e-08
 852.50 5.9896e-08
 852.75 4.9423e-08
 853.00 4.0729e-08
 853.25 3.2025e-08
 853.50 4.4838e-08
 853.75 6.7246e-08
 854.00 6.5877e-08
 854.25 5.4279e-08
 854.50 4.0683e-08
 854.75 4.3376e-08
 855.00 5.7260e-08
 855.25 6.1756e-08
 855.50 4.9949e-08
 855.75 3.7483e-08
 856.00 3.4382e-08
 856.25 4.4042e-08
 856.50 5.1958e-08
 856.75 4.5366e-08
 857.00 4.0145e-08
 857.25 4.0240e-08
 857.50 4.5482e-08
 857.75 5.2822e-08
 858.00 5.2180e-08
 858.25 4.1587e-08
 858.50 3.6057e-08
 858.75 4.1786e-08
 859.00 4.7027e-08
 859.25 5.0354e-08
 859.50 4.6416e-08
 859.75 4.5808e-08
 860.00 5.0291e-08
 860.25 4.3992e-08
 860.50 3.8673e-08
 860.75 3.5609e-08
 861.00 3.9295e-08
 861.25 4.3070e-08
 861.50 3.9088e-08
 861.75 3.8488e-08
 862.00 3.9397e-08
 862.25 4.0252e-08
 862.50 4.4817e-08
 862.75 4.1503e-08
 863.00 3.6766e-08
 863.25 3.7264e-08
 863.50 3.6991e-08
 863.75 4.1237e-08
 864.00 4.6092e-08
 864.25 4.5532e-08
 864.50 3.8903e-08
 864.75 3.3270e-08
 865.00 3.6409e-08
 865.25 4.0694e-08
 865.50 3.7854e-08
 865.75 4.1724e-08
 866.00 4.3385e-08
 866.25 4.0111e-08
 866.50 3.7731e-08
 866.75 3.0897e-08
 867.00 2.8751e-08
 867.25 3.5774e-08
 867.50 3.9698e-08
 867.75 3.5173e-08
 868.00 3.3490e-08
 868.25 3.8841e-08
 868.50 3.5623e-08
 868.75 2.4276e-08
 869.00 2.5982e-08
 869.25 3.7375e-08
 869.50 4.3057e-08
 869.75 3.6117e-08
 870.00 3.0405e-08
 870.25 2.7654e-08
 870.50 2.4784e-08
 870.75 2.7406e-08
 871.00 2.8345e-08
 871.25 2.5091e-08
 871.50 2.9545e-08
 871.75 3.4739e-08
 872.00 3.1870e-08
 872.25 3.1344e-08
 872.50 3.3939e-08
 872.75 2.9373e-08
 873.00 2.3463e-08
 873.25 2.3322e-08
 873.50 2.5546e-08
 873.75 3.0967e-08
 874.00 2.6297e-08
 874.25 1.4673e-08
 874.50 1.4546e-08
 874.75 2.4620e-08
 875.00 2.8914e-08
 875.25 3.2539e-08
 875.50 3.5958e-08
 875.75 2.9401e-08
 876.00 2.7929e-08
 876.25 3.4053e-08
 876.50 2.7642e-08
 876.75 2.5189e-08
 877.00 2.9149e-08
 877.25 2.5312e-08
 877.50 2.4856e-08
 877.75 3.0114e-08
 878.00 3.3170e-08
 878.25 2.9581e-08
 878.50 3.3703e-08
 878.75 3.2507e-08
 879.00 2.8802e-08
 879.25 2.5067e-08
 879.50 2.4274e-08
 879.75 3.4920e-08
 880.00 3.5525e-08
 880.25 2.6696e-08
 880.50 2.3584e-08
 880.75 2.7494e-08
 881.00 2.8648e-08
 881.25 2.5385e-08
 881.50 1.7603e-08
 881.75 1.8758e-08
 882.00 2.4269e-08
 882.25 2.8611e-08
 882.50 3.2019e-08
 882.75 2.7059e-08
 883.00 2.0370e-08
 883.25 1.3966e-08
 883.50 1.6008e-08
 883.75 2.0250e-08
 884.00 2.4998e-08
 884.25 2.6138e-08
 884.50 1.7475e-08
 884.75 1.3431e-08
 885.00 1.3922e-08
 885.25 1.5567e-08
 885.50 1.4273e-08
 885.75 1.6274e-08
 886.00 1.8650e-08
 886.25 1.4584e-08
 886.50 1.2444e-08
 886.75 1.3700e-08
 887.00 1.3753e-08
 887.25 1.4427e-08
 887.50 1.6848e-08
 887.75 1.8884e-08
 888.00 2.1685e-08
 888.25 2.1157e-08
 888.50 1.8168e-08
 888.75 1.3832e-08
 889.00 1.3653e-08
 889.25 1.6371e-08
 889.50 2.0089e-08
 889.75 1.8493e-08
 890.00 1.3626e-08
 890.25 1.7702e-08
 890.50 2.4067e-08
 890.75 2.1481e-08
 891.00 1.3331e-08
 891.25 1.4269e-08
 891.50 2.0481e-08
 891.75 1.7859e-08
 892.00 1.5823e-08
 892.25 1.8469e-08
 892.50 1.2682e-08
 892.75 5.0748e-09
 893.00 3.5776e-09
 893.25 1.1136e-08
 893.50 1.3420e-08
 893.75 1.0744e-08
 894.00 9.5764e-09
 894.25 9.3453e-09
 894.50 1.1796e-08
 894.75 1.4298e-08
 895.00 1.7179e-08
 895.25 1.3294e-08
 895.50 1.0054e-08
 895.75 1.6024e-08
 896.00 2.3292e-08
 896.25 1.6430e-08
 896.50 1.3000e-08
 896.75 1.6874e-08
 897.00 1.8688e-08
 897.25 1.6410e-08
 897.50 8.8125e-09
 897.75 9.1070e-09
 898.00 1.1383e-08
 898.25 9.6512e-09
 898.50 1.0458e-08
 898.75 1.7915e-08
 899.00 1.7906e-08
 899.25 1.2659e-08
 899.50 1.1859e-08
 899.75 1.5782e-08
 900.00 1.7706e-08
 900.25 1.6971e-08
 900.50 2.0245e-08
 900.75 2.5562e-08
 901.00 2.7669e-08
 901.25 1.8940e-08
 901.50 1.3801e-08
 901.75 8.1790e-09
 902.00 4.8916e-09
 902.25 1.2550e-08
 902.50 1.4132e-08
 902.75 1.5499e-08
 903.00 1.8610e-08
 903.25 1.4777e-08
 903.50 1.1620e-08
 903.75 8.4882e-09
 904.00 7.8533e-09
 904.25 8.6730e-09
 904.50 2.4926e-09
 904.75 -2.9045e-09
 905.00 1.9989e-09
 905.25 1.0690e-08
 905.50 4.9205e-09
 905.75 4.7284e-09
 906.00 1.0296e-08
 906.25 8.5762e-09
 906.50 6.1532e-09
 906.75 4.4985e-09
 907.00 7.5849e-09
 907.25 1.3328e-08
 907.50 1.7930e-08
 907.75 1.5708e-08
 908.00 1.1761e-08
 908.25 6.1273e-09
 908.50 1.0678e-08
 908.75 2.1834e-08
 909.00 2.2957e-08
 909.25 1.7557e-08
 909.50 1.8548e-08
 909.75 1.9781e-08
 910.00 1.7029e-08
 910.25 1.9696e-08
 910.50 1.7900e-08
 910.75 1.9199e-08
 911.00 2.0737e-08
 911.25 1.4395e-08
 911.50 1.3611e-08
 911.75 1.3317e-08
 912.00 1.0261e-08
 912.25 1.5644e-08
 912.50 1.6918e-08
 912.75 8.2736e-09
 913.00 3.5673e-09
 913.25 9.8247e-09
 913.50 1.7891e-08
 913.75 1.4974e-08
 914.00 8.1640e-09
 914.25 8.8134e-09
 914.50 8.4240e-09
 914.75 9.9213e-09
 915.00 1.9582e-08
 915.25 2.4676e-08
 915.50 2.0759e-08
 915.75 1.4253e-08
 916.00 1.6678e-08
 916.25 1.5462e-08
 916.50 7.1708e-09
 916.75 8.6171e-09
 917.00 1.5273e-08
 917.25 1.4777e-08
 917.50 1.1405e-08
 917.75 1.0385e-08
 918.00 6.9856e-09
 918.25 7.2736e-09
 918.50 1.1915e-08
 918.75 8.9103e-09
 919.00 7.8905e-09
 919.25 1.6580e-08
 919.50 1.8918e-08
 919.75 1.1391e-08
 920.00 8.8147e-09
 920.25 1.0160e-08
 920.50 5.8446e-09
 920.75 6.3780e-09
 921.00 1.3583e-08
 921.25 1.7138e-08
 921.50 1.5254e-08
 921.75 1.3224e-08
 922.00 1.0053e-08
 922.25 1.1633e-08
 922.50 1.7659e-08
 922.75 1.6472e-08
 923.00 1.3655e-08
 923.25 1.6927e-08
 923.50 2.1120e-08
 923.75 2.0332e-08
 924.00 1.9034e-08
 924.25 1.3488e-08
 924.50 4.6507e-09
 924.75 1.0459e-08
 925.00 1.7321e-08
 925.25 1.4685e-08
 925.50 1.6413e-08
 925.75 1.2808e-08
 926.00 8.6724e-09
 926.25 9.4026e-09
 926.50 7.4798e-09
 926.75 4.6800e-09
 927.00 5.6442e-10
 927.25 1.4241e-09
 927.50 7.9955e-09
 927.75 1.2498e-08
 928.00 1.3951e-08
 928.25 1.0600e-08
 928.50 1.2539e-08
 928.75 1.8302e-08
 929.00 1.5382e-08
 929.25 1.0570e-08
 929.50 1.1603e-08
 929.75 1.2614e-08
 930.00 8.1900e-09
 930.25 6.2777e-09
 930.50 7.2888e-09
 930.75 1.1956e-08
 931.00 1.1502e-08
 931.25 1.0564e-08
 931.50 7.6751e-09
 931.75 4.1672e-09
 932.00 3.8770e-09
 932.25 -1.5488e-09
 932.50 1.2515e-08
 932.75 2.2531e-08
 933.00 1.1925e-08
 933.25 1.0503e-08
 933.50 1.7539e-08
 933.75 1.9095e-08
 934.00 1.2278e-08
 934.25 6.0677e-09
 934.50 6.2960e-09
 934.75 1.3507e-08
 935.00 1.4731e-08
 935.25 1.1052e-08
 935.50 1.0656e-08
 935.75 1.0429e-08
 936.00 1.1051e-08
 936.25 1.1680e-08
 936.50 1.2448e-08
 936.75 9.1515e-09
 937.00 1.0003e-08
 937.25 1.0974e-08
 937.50 1.2293e-08
 937.75 1.3909e-08
 938.00 8.0500e-09
 938.25 6.2431e-09
 938.50 8.2867e-09
 938.75 7.4337e-09
 939.00 1.1507e-08
 939.25 1.8426e-08
 939.50 1.2174e-08
 939.75 5.6705e-09
 940.00 6.8463e-09
 940.25 8.2659e-09
 940.50 5.8375e-09
 940.75 5.6237e-09
 941.00 4.8128e-09
 941.25 1.4994e-09
 941.50 1.5987e-09
 941.75 1.0454e-08
 942.00 1.7566e-08
 942.25 9.5714e-09
 942.50 6.0012e-09
 942.75 9.1214e-09
 943.00 1.2694e-08
 943.25 1.4708e-08
 943.50 1.0356e-08
 943.75 7.1109e-09
 944.00 4.9123e-09
 944.25 -7.8578e-09
 944.50 -2.7098e-09
 944.75 1.4306e-08
 945.00 9.2920e-09
 945.25 2.2567e-09
 945.50 5.2470e-09
 945.75 9.0548e-09
 946.00 1.0671e-08
 946.25 5.5357e-09
 946.50 1.6869e-09
 946.75 9.4330e-09
 947.00 1.3637e-08
 947.25 8.9841e-09
 947.50 3.2283e-09
 947.75 3.8225e-09
 948.00 7.5775e-09
 948.25 9.5370e-09
 948.50 9.4874e-09
 948.75 6.9689e-09
 949.00 3.2061e-09
 949.25 3.2731e-09
 949.50 6.1296e-09
 949.75 5.7942e-09
 950.00 5.2977e-09
 950.25 1.2209e-08
 950.50 1.3533e-08
 950.75 1.1395e-08
 951.00 1.5266e-08
 951.25 1.3762e-08
 951.50 9.6485e-09
 951.75 1.1564e-08
 952.00 1.4741e-08
 952.25 1.2656e-08
 952.50 1.3103e-08
 952.75 1.3636e-08
 953.00 1.5180e-08
 953.25 1.0819e-08
 953.50 8.5285e-09
 953.75 1.0353e-08
 954.00 1.3130e-08
 954.25 1.2118e-08
 954.50 7.6786e-09
 954.75 1.0776e-08
 955.00 1.6775e-08
 955.25 1.1884e-08
 955.50 1.1426e-08
 955.75 1.4346e-08
 956.00 -2.3358e-09
 956.25 -2.6528e-09
 956.50 -2.5898e-08
 956.75 -2.8197e-08
 957.00 1.0611e-08
 957.25 1.8965e-08
 957.50 1.2275e-08
 957.75 2.5090e-09
 958.00 1.4987e-09
 958.25 -4.2908e-10
 958.50 -3.9657e-10
 958.75 3.4944e-09
 959.00 1.2971e-08
 959.25 1.7784e-08
 959.50 1.6034e-08
 959.75 1.1131e-08
 960.00 2.1085e-09
 960.25 3.6537e-09
 960.50 1.0965e-08
 960.75 1.0812e-08
 961.00 -4.5897e-10
 961.25 -1.0177e-09
 961.50 1.2605e-08
 961.75 1.9011e-08
 962.00 1.6183e-08
 962.25 1.7565e-08
 962.50 1.3959e-08
 962.75 4.5670e-09
 963.00 9.3357e-09
 963.25 1.5081e-08
 963.50 8.2208e-09
 963.75 -4.6668e-10
 964.00 -3.9440e-09
 964.25 5.2400e-09
 964.50 1.4588e-08
 964.75 1.5422e-08
 965.00 1.2625e-08
 965.25 8.5486e-09
 965.50 6.6812e-09
 965.75 2.9438e-09
 966.00 2.1356e-09
 966.25 5.3205e-09
 966.50 8.8393e-09
 966.75 1.8648e-08
 967.00 2.4352e-08
 967.25 1.6636e-08
 967.50 8.0722e-09
 967.75 7.6068e-09
 968.00 2.1318e-08
 968.25 3.5647e-08
 968.50 2.1469e-08
 968.75 3.8629e-09
 969.00 9.7390e-09
 969.25 1.6706e-08
 969.50 1.5083e-08
 969.75 5.9882e-09
 970.00 -2.4048e-09
 970.25 -7.8603e-09
 970.50 -3.1762e-09
 970.75 2.9836e-09
 971.00 -3.6122e-09
 971.25 -4.1652e-09
 971.50 -1.8545e-09
 971.75 -4.4723e-09
 972.00 2.5320e-09
 972.25 2.6275e-09
 972.50 -2.4693e-09
 972.75 1.8347e-10
 973.00 -8.5946e-09
 973.25 -2.5245e-09
 973.50 1.0878e-08
 973.75 1.0638e-08
 974.00 7.3526e-09
 974.25 8.0898e-09
 974.50 8.4025e-09
 974.75 2.5548e-09
 975.00 3.4049e-09
 975.25 5.6756e-09
 975.50 7.3860e-09
 975.75 1.1411e-08
 976.00 1.6234e-08
 976.25 1.4677e-08
 976.50 1.1951e-08
 976.75 9.7308e-09
 977.00 4.3968e-09
 977.25 6.2483e-09
 977.50 1.1828e-08
 977.75 8.6434e-09
 978.00 -5.3663e-10
 978.25 -2.4067e-09
 978.50 7.8372e-09
 978.75 1.4388e-08
 979.00 1.1584e-08
 979.25 9.7764e-09
 979.50 4.3911e-09
 979.75 -1.7211e-09
 980.00 -1.7687e-09
 980.25 -1.5565e-09
 980.50 -5.0240e-09
 980.75 -3.9769e-09
 981.00 -2.6777e-09
 981.25 -4.2280e-09
 981.50 2.2346e-10
 981.75 8.6980e-09
 982.00 5.5612e-09
 982.25 -4.6194e-09
 982.50 -8.1870e-10
 982.75 7.2788e-09
 983.00 7.1775e-09
 983.25 1.9332e-09
 983.50 4.6845e-09
 983.75 4.8945e-09
 984.00 1.2098e-09
 984.25 4.2432e-09
 984.50 4.1064e-09
 984.75 7.0488e-09
 985.00 1.2477e-08
 985.25 1.7308e-08
 985.50 1.9661e-08
 985.75 1.5847e-08
 986.00 1.3773e-08
 986.25 1.2118e-08
 986.50 1.4275e-09
 986.75 3.9631e-09
 987.00 1.4826e-08
 987.25 1.5413e-08
 987.50 1.0982e-08
 987.75 6.3290e-09
 988.00 6.6731e-09
 988.25 2.3534e-09
 988.50 5.6517e-09
 988.75 1.3256e-08
 989.00 1.1082e-08
 989.25 -2.0352e-09
 989.50 -8.3685e-09
 989.75 -3.6583e-10
 990.00 4.0362e-09
 990.25 5.7150e-09
 990.50 8.4350e-09
 990.75 3.6266e-09
 991.00 -1.7851e-09
 991.25 3.3429e-09
 991.50 5.2443e-09
 991.75 7.8188e-09
 992.00 2.1441e-08
 992.25 2.4377e-08
 992.50 9.4337e-09
 992.75 7.1016e-09
 993.00 1.2659e-08
 993.25 1.3297e-08
 993.50 5.5568e-09
 993.75 2.1198e-09
 994.00 2.8263e-09
 994.25 3.4416e-09
 994.50 7.0174e-09
 994.75 9.1422e-10
 995.00 7.8159e-09
 995.25 1.8755e-08
 995.50 1.5073e-08
 995.75 8.6713e-09
 996.00 2.9141e-09
 996.25 4.7910e-10
 996.50 8.9180e-09
 996.75 1.4901e-08
 997.00 1.4208e-08
 997.25 4.6053e-09
 997.50 1.9177e-09
 997.75 1.1291e-08
 998.00 1.3100e-08
 998.25 1.5457e-08
 998.50 1.0245e-08
 998.75 3.1631e-09
 999.00 6.1973e-10
 999.25 -1.0385e-09
 999.50 2.9741e-10
 999.75 3.0448e-09
1000.00 7.8948e-09
1000.25 1.3378e-08
1000.50 9.2194e-09
1000.75 7.1841e-09
1001.00 9.1417e-09
1001.25 7.1537e-09
1001.50 1.0872e-08
1001.75 2.3334e-09
1002.00 -1.3111e-08
1002.25 -1.5861e-08
1002.50 -5.8002e-09
1002.75 9.1391e-09
1003.00 1.2517e-08
1003.25 7.5215e-09
1003.50 7.2493e-09
1003.75 8.6713e-09
1004.00 1.4514e-08
1004.25 1.2673e-08
1004.50 -3.0125e-09
1004.75 -7.1855e-09
1005.00 -2.3147e-09
1005.25 -9.7635e-10
1005.50 -6.5907e-09
1005.75 -2.1836e-09
1006.00 8.6081e-09
1006.25 1.1442e-08
1006.50 1.1730e-08
1006.75 8.6089e-09
1007.00 1.0718e-08
1007.25 6.2253e-09
1007.50 -4.4126e-09
1007.75 -1.0222e-08
1008.00 -1.4477e-09
1008.25 4.8908e-09
1008.50 4.4215e-10
1008.75 9.2115e-09
1009.00 1.9272e-08
1009.25 1.8447e-08
1009.50 2.1845e-08
1009.75 2.8910e-08
1010.00 1.3908e-08
1010.25 5.0501e-09
1010.50 3.4454e-09
1010.75 3.6260e-10
1011.00 3.3630e-09
1011.25 2.5899e-09
1011.50 4.8065e-09
1011.75 2.8264e-09
1012.00 7.3514e-09
1012.25 1.0708e-08
1012.50 4.7974e-09
1012.75 -1.8756e-10
1013.00 -3.0051e-09
1013.25 -2.6574e-09
1013.50 2.5920e-09
1013.75 1.0475e-08
1014.00 9.7283e-09
1014.25 3.2235e-09
1014.50 -1.1879e-09
1014.75 2.5198e-09
1015.00 5.3995e-09
1015.25 1.8645e-09
1015.50 6.5202e-09
1015.75 1.1994e-08
1016.00 1.0131e-08
1016.25 3.5231e-09
1016.50 -4.5968e-09
1016.75 -4.3825e-09
1017.00 -2.8882e-09
1017.25 -1.9672e-09
1017.50 6.8147e-09
1017.75 1.1932e-08
1018.00 6.6283e-09
1018.25 -1.9032e-09
1018.50 -9.4923e-09
1018.75 -1.0534e-08
1019.00 -4.3519e-09
1019.25 1.4220e-09
1019.50 4.8067e-09
1019.75 1.0073e-08
1020.00 1.1841e-08
1020.25 7.7752e-09
1020.50 4.8820e-09
1020.75 5.7499e-09
1021.00 1.0030e-08
1021.25 1.3190e-08
1021.50 2.6794e-09
1021.75 -1.2314e-08
1022.00 -6.9134e-09
1022.25 8.3975e-09
1022.50 6.6654e-09
1022.75 1.4603e-09
1023.00 9.5210e-09
1023.25 4.9468e-09
1023.50 -8.2300e-09
1023.75 -9.7980e-09
1024.00 -5.8849e-09
1024.25 -7.7330e-09
1024.50 -8.8359e-09
1024.75 -1.4560e-09
1025.00 -2.7167e-09
1025.25 -4.8803e-09
1025.50 7.5380e-09
1025.75 2.0193e-08
1026.00 1.4519e-08
1026.25 -1.2223e-09
1026.50 -4.6209e-09
1026.75 5.6517e-09
1027.00 1.7038e-09
1027.25 -7.8867e-09
1027.50 3.1817e-09
1027.75 1.4753e-08
1028.00 1.5822e-08
1028.25 9.4984e-09
1028.50 5.1749e-09
1028.75 5.1766e-09
1029.00 3.1458e-09
1029.25 2.8930e-09
1029.50 1.0614e-08
1029.75 1.2065e-08
1030.00 9.2609e-10
1030.25 -5.6445e-09
1030.50 -7.7660e-10
1030.75 9.3513e-09
1031.00 9.8857e-09
1031.25 1.1867e-08
1031.50 1.2742e-08
1031.75 5.6117e-09
1032.00 -2.2374e-09
1032.25 -1.3497e-09
1032.50 1.2327e-08
1032.75 1.4632e-08
1033.00 6.2739e-09
1033.25 1.9292e-08
1033.50 2.2589e-08
1033.75 -9.9964e-09
1034.00 -7.7828e-09
1034.25 2.2097e-08
1034.50 1.8667e-08
1034.75 4.1264e-09
1035.00 1.1852e-08
1035.25 1.7644e-08
1035.50 1.2874e-08
1035.75 1.7109e-08
1036.00 1.9087e-08
1036.25 6.5793e-09
1036.50 3.9469e-10
1036.75 1.0344e-08
1037.00 9.3550e-09
1037.25 6.1703e-09
1037.50 8.7679e-09
1037.75 1.0500e-08
1038.00 5.9969e-09
1038.25 9.4079e-10
1038.50 5.3755e-09
1038.75 2.6357e-10
1039.00 -8.2882e-09
1039.25 -3.7177e-09
1039.50 8.9055e-09
1039.75 1.5284e-08
1040.00 7.8310e-09
1040.25 6.3276e-10
1040.50 1.0648e-09
1040.75 -1.5895e-09
1041.00 -5.0204e-10
1041.25 5.7529e-09
1041.50 8.4247e-09
1041.75 2.9540e-09
1042.00 -4.4685e-09
1042.25 -2.2553e-09
1042.50 -2.4647e-10
1042.75 9.5502e-10
1043.00 3.2143e-09
1043.25 6.6508e-09
1043.50 8.2727e-09
1043.75 4.2805e-09
1044.00 -4.1708e-09
1044.25 -9.8492e-09
1044.50 -3.2099e-09
1044.75 2.1530e-09
1045.00 8.2174e-09
1045.25 2.1531e-08
1045.50 2.6790e-08
1045.75 9.1014e-09
1046.00 -1.6681e-09
1046.25 1.6138e-08
1046.50 1.9751e-08
1046.75 1.6089e-08
1047.00 1.8002e-08
1047.25 1.2148e-08
1047.50 1.2083e-08
1047.75 1.0385e-08
1048.00 4.7724e-09
1048.25 2.3696e-09
1048.50 7.1041e-09
1048.75 1.5073e-08
1049.00 1.1868e-08
1049.25 1.1915e-09
1049.50 2.9730e-10
1049.75 -2.9952e-09
1050.00 -9.0777e-09
1050.25 -6.3512e-09
1050.50 2.3203e-09
1050.75 1.3595e-08
1051.00 8.5365e-09
1051.25 3.3219e-09
1051.50 9.7657e-09
1051.75 2.5184e-08
1052.00 1.1886e-08
1052.25 -9.6138e-09
1052.50 -4.7631e-09
1052.75 -6.5661e-09
1053.00 -1.4930e-09
1053.25 -2.8886e-09
1053.50 -3.8885e-10
1053.75 1.4154e-09
1054.00 -1.2504e-10
1054.25 1.2038e-08
1054.50 1.1113e-08
1054.75 6.3898e-09
1055.00 2.9638e-09
1055.25 3.1402e-09
1055.50 1.4862e-08
1055.75 1.6211e-08
1056.00 3.2893e-09
1056.25 -3.4896e-09
1056.50 -3.5726e-09
1056.75 -5.6386e-10
1057.00 -5.5335e-10
1057.25 4.7925e-10
1057.50 5.4632e-09
1057.75 1.1075e-08
1058.00 1.8902e-08
1058.25 1.7712e-08
1058.50 1.0526e-08
1058.75 6.0752e-09
1059.00 4.1526e-09
1059.25 2.9838e-09
1059.50 3.8153e-09
1059.75 1.8627e-09
1060.00 4.4870e-10
1060.25 2.9528e-09
1060.50 3.1402e-09
1060.75 8.5318e-09
1061.00 3.9990e-09
1061.25 -5.3094e-09
1061.50 -5.7505e-09
1061.75 -3.3289e-09
1062.00 -2.8309e-09
1062.25 1.0001e-09
1062.50 1.3375e-08
1062.75 8.6358e-09
1063.00 -5.7603e-09
1063.25 7.5275e-11
1063.50 1.6938e-08
1063.75 1.7204e-08
1064.00 1.1862e-08
1064.25 6.4046e-09
1064.50 -1.3976e-09
1064.75 -6.7906e-09
1065.00 -1.0111e-08
1065.25 -4.6766e-09
1065.50 4.7300e-09
1065.75 6.4128e-09
1066.00 2.2219e-09
1066.25 1.1015e-09
1066.50 2.4445e-09
1066.75 7.1437e-09
1067.00 1.4797e-09
1067.25 1.7013e-09
1067.50 7.1159e-09
1067.75 2.1718e-09
1068.00 7.0462e-09
1068.25 1.8205e-08
1068.50 2.2616e-08
1068.75 1.9341e-08
1069.00 1.1613e-08
1069.25 5.1627e-09
1069.50 1.2257e-09
1069.75 -6.9781e-09
1070.00 -1.3041e-08
1070.25 -1.3099e-08
1070.50 -1.2126e-08
1070.75 -8.6385e-09
1071.00 -3.1100e-09
1071.25 3.4524e-10
1071.50 -6.3727e-10
1071.75 1.8520e-09
1072.00 1.0427e-08
1072.25 1.2611e-08
1072.50 8.2892e-09
1072.75 1.1057e-09
1073.00 -1.2429e-09
1073.25 5.2281e-09
1073.50 1.0456e-08
1073.75 1.4294e-08
1074.00 7.8098e-09
1074.25 -9.9530e-09
1074.50 -1.2437e-08
1074.75 8.5988e-09
1075.00 2.6122e-08
1075.25 2.1229e-08
1075.50 1.7138e-09
1075.75 -1.7599e-08
1076.00 -1.6101e-08
1076.25 -1.0972e-09
1076.50 5.2948e-09
1076.75 7.0259e-09
1077.00 1.2782e-08
1077.25 1.7328e-08
1077.50 6.8149e-09
1077.75 -2.9402e-09
1078.00 -6.2866e-10
1078.25 5.8982e-09
1078.50 9.7525e-09
1078.75 1.2593e-08
1079.00 1.2469e-08
1079.25 7.4356e-09
1079.50 7.4483e-09
1079.75 6.4566e-09
1080.00 1.2191e-08
1080.25 1.9659e-08
1080.50 1.6456e-08
1080.75 1.4271e-08
1081.00 1.5021e-08
1081.25 3.3462e-09
1081.50 -4.4256e-09
1081.75 2.8976e-11
1082.00 4.2400e-09
1082.25 1.0947e-08
1082.50 8.8922e-09
1082.75 5.5720e-09
1083.00 -1.5290e-09
1083.25 -6.1255e-09
1083.50 -1.2161e-09
1083.75 3.1603e-09
1084.00 -1.1721e-09
1084.25 -7.0649e-09
1084.50 4.6705e-09
1084.75 1.1486e-08
1085.00 1.0576e-08
1085.25 1.2455e-08
1085.50 1.2493e-08
1085.75 -5.8020e-09
1086.00 -1.8220e-08
1086.25 -2.3805e-09
1086.50 8.8059e-09
1086.75 4.4983e-09
1087.00 -2.5760e-09
1087.25 2.3103e-09
1087.50 1.5059e-08
1087.75 2.1216e-08
1088.00 1.6972e-08
1088.25 1.1023e-08
1088.50 -6.1325e-09
1088.75 -1.6900e-08
1089.00 3.0597e-10
1089.25 1.9970e-08
1089.50 2.0566e-08
1089.75 1.3305e-08
1090.00 7.6474e-09
1090.25 3.8999e-09
1090.50 2.7536e-09
1090.75 3.9982e-09
1091.00 1.3686e-08
1091.25 1.6222e-08
1091.50 5.1812e-09
1091.75 -1.1410e-09
1092.00 -1.5998e-09
1092.25 -5.8737e-09
1092.50 -1.1383e-09
1092.75 -3.6165e-09
1093.00 -6.1323e-09
1093.25 2.9135e-09
1093.50 5.6673e-09
1093.75 4.7623e-09
1094.00 4.7098e-09
1094.25 -3.2623e-09
1094.50 -1.4215e-08
1094.75 -4.5685e-09
1095.00 9.5629e-09
1095.25 1.4224e-08
1095.50 7.5093e-09
1095.75 1.0981e-08
1096.00 1.8880e-08
1096.25 9.0823e-09
1096.50 3.0609e-09
1096.75 -2.0886e-09
1097.00 5.0105e-10
1097.25 9.4369e-09
1097.50 -8.8960e-10
1097.75 -6.1821e-10
1098.00 1.0890e-09
1098.25 -5.3741e-10
1098.50 9.0308e-10
1098.75 -6.7542e-09
1099.00 6.0635e-09
1099.25 1.1878e-08
1099.50 3.3939e-10
1099.75 -3.1732e-09
1100.00 6.1769e-09
1100.25 1.6077e-08
1100.50 1.8282e-08
1100.75 2.1679e-08
1101.00 2.1648e-08
1101.25 3.4893e-09
1101.50 -8.3589e-09
1101.75 -1.0419e-08
1102.00 -1.6867e-08
1102.25 -7.2761e-09
1102.50 1.3892e-09
1102.75 -1.1034e-09
1103.00 -1.5942e-09
1103.25 9.1676e-09
1103.50 1.2376e-08
1103.75 8.3743e-09
1104.00 8.0269e-09
1104.25 6.9753e-09
1104.50 1.0120e-08
1104.75 8.4798e-09
1105.00 2.6151e-09
1105.25 -4.3291e-09
1105.50 -3.3205e-09
1105.75 7.8942e-09
1106.00 8.8416e-09
1106.25 -1.0907e-09
1106.50 -2.5528e-09
1106.75 9.1242e-09
1107.00 1.0743e-08
1107.25 8.6378e-09
1107.50 1.2251e-08
1107.75 -5.5612e-09
1108.00 -1.8501e-08
1108.25 -9.0323e-09
1108.50 6.3428e-09
1108.75 1.6297e-08
1109.00 1.0965e-08
1109.25 1.7992e-08
1109.50 2.7253e-08
1109.75 1.1415e-08
1110.00 -3.8979e-09
1110.25 -7.6857e-12
1110.50 5.9122e-09
1110.75 1.0263e-08
1111.00 2.0852e-08
1111.25 1.5387e-08
1111.50 -8.3257e-10
1111.75 1.4523e-09
1112.00 1.0211e-08
1112.25 7.5200e-09
1112.50 1.0284e-08
1112.75 7.3928e-09
1113.00 -1.2327e-09
1113.25 -5.9874e-09
1113.50 -4.8152e-09
1113.75 9.5803e-09
1114.00 6.8665e-09
1114.25 6.4246e-10
1114.50 -2.4700e-09
1114.75 -5.6270e-09
1115.00 6.3166e-09
1115.25 1.6781e-08
1115.50 1.1593e-08
1115.75 8.3412e-09
1116.00 8.3384e-09
1116.25 1.1870e-08
1116.50 2.0068e-08
1116.75 6.3106e-09
1117.00 1.7329e-09
1117.25 6.3684e-09
1117.50 -1.6891e-08
1117.75 -3.7678e-08
1118.00 -3.0726e-08
1118.25 -1.8664e-08
1118.50 -1.2351e-08
1118.75 -8.9017e-09
1119.00 -1.3868e-08
1119.25 -1.4787e-09
1119.50 2.5684e-08
1119.75 2.4511e-08
1120.00 9.5995e-09
1120.25 2.1455e-08
1120.50 2.9408e-08
1120.75 1.7157e-08
1121.00 1.2369e-08
1121.25 1.0968e-08
1121.50 1.7855e-08
1121.75 6.9468e-10
1122.00 -1.0232e-08
1122.25 1.3614e-08
1122.50 2.8444e-08
1122.75 2.9255e-08
1123.00 2.3858e-08
1123.25 1.3016e-08
1123.50 7.6007e-09
1123.75 8.8413e-09
1124.00 -1.1545e-08
1124.25 -2.3416e-08
1124.50 -2.6512e-08
1124.75 -1.7431e-08
1125.00 -3.0944e-08
